EEG 1,EEG 2,EEG 3,EEG 4,EEG 5,EEG 6,EEG 7,EEG 8,Accelerometer X,Accelerometer Y,Accelerometer Z,Gyroscope X,Gyroscope Y,Gyroscope Z,Battery Level,Counter,Validation Indicator
6.956,1.690,7.947,8.311,8.564,7.508,9.483,3.213,0.000,0.936,-0.378,1.495,6.378,-2.441,53.333,324129.000,1.000
3.333,10.895,8.227,1.534,2.996,4.762,-0.308,-0.052,-0.001,0.936,-0.378,1.343,6.317,-2.441,53.333,324130.000,1.000
0.826,7.060,3.536,-1.976,-1.651,-0.150,-5.911,-4.648,-0.003,0.935,-0.376,1.312,6.256,-2.350,53.333,324131.000,1.000
5.569,-2.583,1.811,4.818,1.730,0.357,-0.362,-3.819,-0.004,0.934,-0.377,1.465,6.012,-2.319,53.333,324132.000,1.000
12.696,-3.400,5.791,13.388,8.059,5.360,6.851,0.626,-0.004,0.931,-0.375,1.282,5.829,-2.167,53.333,324133.000,1.000
13.351,6.709,9.623,11.677,7.462,7.226,3.455,1.140,-0.004,0.934,-0.376,1.373,5.676,-2.167,53.333,324134.000,1.000
6.953,14.199,7.042,0.922,-0.987,2.310,-8.467,-4.945,-0.006,0.934,-0.379,1.312,5.615,-2.258,53.333,324135.000,1.000
1.905,8.161,0.008,-5.838,-7.993,-4.125,-15.325,-11.464,-0.004,0.932,-0.380,1.373,5.432,-2.197,53.333,324136.000,1.000
3.850,-4.926,-3.989,-1.467,-6.787,-5.297,-10.696,-11.548,-0.002,0.933,-0.381,1.404,5.249,-2.075,53.333,324137.000,1.000
7.815,-10.125,-2.107,5.758,-2.187,-2.209,-3.936,-6.681,-0.003,0.931,-0.378,1.495,5.096,-2.045,53.333,324138.000,1.000
5.337,-4.135,0.369,4.035,-3.369,-1.870,-6.743,-4.195,-0.002,0.929,-0.382,1.465,4.852,-1.862,53.333,324139.000,1.000
-3.500,0.929,-2.279,-5.443,-10.719,-7.157,-16.613,-6.991,-0.001,0.928,-0.380,1.587,4.486,-1.892,53.333,324140.000,1.000
-10.132,-5.278,-8.315,-10.436,-15.298,-12.729,-20.443,-9.983,0.000,0.926,-0.379,1.678,4.364,-1.801,53.333,324141.000,1.000
-9.392,-16.975,-11.189,-5.080,-11.503,-12.573,-13.069,-7.806,0.000,0.926,-0.380,1.709,4.333,-1.740,53.333,324142.000,1.000
-6.575,-20.449,-8.834,1.640,-5.199,-8.570,-4.803,-2.771,-0.002,0.926,-0.382,1.862,4.120,-1.709,53.333,324143.000,1.000
-9.769,-13.185,-6.526,-1.706,-5.832,-7.993,-7.289,-1.825,-0.001,0.926,-0.382,1.953,3.845,-1.617,53.333,324144.000,1.000
-17.876,-7.009,-9.018,-12.597,-13.017,-12.990,-16.894,-6.440,-0.003,0.924,-0.379,2.106,3.571,-1.587,53.333,324145.000,1.000
-21.120,-10.903,-12.963,-17.020,-16.208,-16.638,-18.698,-9.560,-0.003,0.926,-0.381,2.197,3.387,-1.617,53.333,324146.000,1.000
-13.992,-17.887,-10.876,-8.112,-8.659,-11.807,-6.407,-4.627,-0.004,0.926,-0.382,2.319,3.143,-1.404,53.333,324147.000,1.000
-3.440,-14.950,-1.960,4.016,2.848,-1.420,8.481,4.985,-0.004,0.927,-0.379,2.472,3.082,-1.495,53.333,324148.000,1.000
-0.719,-2.279,5.377,5.057,6.099,4.194,11.084,9.372,-0.004,0.928,-0.379,2.502,2.869,-1.617,53.333,324149.000,1.000
-6.932,5.854,3.939,-4.688,-0.767,0.242,2.263,4.658,-0.002,0.929,-0.378,2.625,2.655,-1.587,53.333,324150.000,1.000
-11.451,0.601,-2.440,-10.736,-6.841,-6.296,-3.115,-1.878,-0.003,0.929,-0.379,2.655,2.472,-1.617,53.333,324151.000,1.000
-5.698,-8.635,-3.435,-3.726,-2.863,-5.776,3.612,-1.273,-0.004,0.929,-0.377,2.594,2.167,-1.770,53.333,324152.000,1.000
5.828,-6.489,4.332,8.335,6.670,1.539,13.539,5.457,-0.002,0.928,-0.379,2.625,2.014,-1.892,53.333,324153.000,1.000
11.907,7.388,12.935,11.300,9.966,6.280,12.915,9.074,0.000,0.929,-0.381,2.594,1.709,-1.984,53.333,324154.000,1.000
9.259,17.363,13.591,3.847,3.791,2.701,2.014,4.603,-0.001,0.928,-0.384,2.533,1.556,-2.258,53.333,324155.000,1.000
5.332,12.043,7.380,-2.043,-3.264,-4.439,-6.099,-2.772,0.001,0.932,-0.383,2.563,1.465,-2.411,53.333,324156.000,1.000
6.551,-1.243,2.446,1.208,-3.672,-7.404,-4.378,-5.743,0.002,0.933,-0.384,2.563,1.465,-2.411,53.333,324157.000,1.000
9.470,-6.506,2.756,6.419,-1.055,-5.808,-1.121,-4.692,0.006,0.934,-0.385,2.594,1.282,-2.533,53.333,324158.000,1.000
6.713,-0.010,3.742,2.702,-3.759,-5.719,-7.034,-5.891,0.010,0.931,-0.383,2.563,1.404,-2.686,53.333,324159.000,1.000
-1.488,5.955,-0.078,-8.228,-11.835,-9.789,-18.855,-11.474,0.015,0.934,-0.385,2.594,1.495,-2.655,53.333,324160.000,1.000
-6.886,0.825,-6.818,-13.717,-16.262,-12.903,-22.996,-15.777,0.014,0.934,-0.387,2.563,1.556,-2.533,53.333,324161.000,1.000
-4.855,-9.873,-10.031,-7.870,-11.824,-9.721,-14.578,-13.448,0.013,0.938,-0.387,2.594,1.587,-2.411,53.333,324162.000,1.000
-1.441,-12.948,-8.240,-0.403,-5.316,-3.213,-5.122,-7.698,0.012,0.937,-0.390,2.533,1.678,-2.258,53.333,324163.000,1.000
-5.248,-6.283,-7.252,-3.669,-6.843,-1.425,-7.446,-6.546,0.013,0.939,-0.392,2.472,1.862,-2.197,53.333,324164.000,1.000
-15.101,-1.546,-11.800,-15.472,-15.788,-6.451,-18.176,-11.851,0.013,0.941,-0.391,2.258,1.984,-2.045,53.333,324165.000,1.000
-20.802,-7.269,-18.217,-21.474,-20.896,-10.908,-21.964,-16.251,0.014,0.941,-0.389,2.136,2.106,-1.862,53.333,324166.000,1.000
-16.362,-16.046,-18.593,-14.132,-14.739,-7.162,-11.847,-12.475,0.013,0.942,-0.387,1.984,2.197,-1.709,53.333,324167.000,1.000
-7.846,-14.143,-11.172,-2.431,-3.263,2.759,1.757,-2.712,0.014,0.943,-0.389,1.892,2.319,-1.495,53.333,324168.000,1.000
-5.454,-0.948,-3.233,0.403,2.012,9.454,5.060,4.213,0.012,0.946,-0.389,1.770,2.472,-1.282,53.333,324169.000,1.000
-10.578,8.702,-2.363,-5.839,-1.572,7.579,-1.431,3.882,0.010,0.946,-0.393,1.587,2.655,-1.038,53.333,324170.000,1.000
-14.914,3.509,-7.312,-9.311,-5.719,1.673,-5.080,1.028,0.009,0.945,-0.388,1.526,2.838,-0.854,53.333,324171.000,1.000
-12.548,-9.614,-10.654,-3.575,-3.720,-1.026,0.425,1.896,0.005,0.945,-0.386,1.404,2.899,-0.610,53.333,324172.000,1.000
-8.328,-15.306,-9.433,2.834,-0.046,-0.646,6.041,4.998,0.003,0.947,-0.387,1.221,2.991,-0.549,53.333,324173.000,1.000
-10.608,-10.114,-8.631,-1.449,-3.318,-3.357,0.695,3.615,0.001,0.944,-0.385,1.007,2.960,-0.366,53.333,324174.000,1.000
-18.642,-5.681,-12.940,-13.761,-12.822,-11.001,-11.854,-3.672,0.002,0.943,-0.389,0.977,2.899,-0.214,53.333,324175.000,1.000
-22.794,-11.412,-19.121,-19.980,-18.269,-17.183,-16.992,-9.899,-0.001,0.942,-0.385,0.885,2.869,-0.092,53.333,324176.000,1.000
-17.477,-20.974,-19.857,-13.375,-13.549,-15.700,-8.986,-8.746,-0.003,0.938,-0.384,0.702,2.930,0.061,53.333,324177.000,1.000
-8.943,-21.298,-13.893,-3.841,-5.474,-9.584,0.817,-3.242,-0.001,0.938,-0.385,0.641,2.991,0.214,53.333,324178.000,1.000
-6.871,-11.130,-8.118,-4.464,-4.950,-7.649,-0.913,-1.818,-0.002,0.939,-0.385,0.671,2.991,0.214,53.333,324179.000,1.000
-10.675,-2.650,-7.915,-13.224,-11.870,-12.338,-11.072,-6.402,-0.003,0.936,-0.387,0.519,2.808,0.336,53.333,324180.000,1.000
-9.594,-4.030,-9.164,-15.136,-14.589,-15.671,-13.831,-9.036,-0.002,0.938,-0.383,0.580,2.716,0.397,53.333,324181.000,1.000
2.691,-7.808,-3.735,-2.650,-5.535,-9.724,-2.154,-2.483,-0.002,0.937,-0.384,0.519,2.808,0.305,53.333,324182.000,1.000
18.511,-1.742,8.550,13.306,7.916,2.091,11.965,9.221,-0.001,0.933,-0.386,0.458,2.655,0.366,53.333,324183.000,1.000
24.855,12.609,17.892,16.777,12.116,8.282,12.537,14.711,0.000,0.931,-0.386,0.366,2.502,0.427,53.333,324184.000,1.000
18.950,19.943,15.888,6.741,4.049,3.263,-0.204,8.967,0.004,0.930,-0.386,0.427,2.563,0.427,53.333,324185.000,1.000
10.373,10.942,5.667,-2.960,-5.834,-6.185,-11.294,-1.138,0.007,0.926,-0.388,0.519,2.533,0.458,53.333,324186.000,1.000
7.672,-4.837,-2.405,-2.767,-7.985,-10.181,-11.440,-6.246,0.010,0.928,-0.387,0.519,2.563,0.366,53.333,324187.000,1.000
8.370,-10.500,-3.203,1.166,-5.151,-7.666,-7.811,-5.573,0.010,0.928,-0.387,0.610,2.686,0.366,53.333,324188.000,1.000
5.293,-2.635,-1.116,-1.793,-5.911,-5.388,-11.207,-5.211,0.012,0.930,-0.387,0.763,2.747,0.397,53.333,324189.000,1.000
-1.229,5.906,-1.844,-10.060,-10.886,-6.903,-19.006,-7.673,0.013,0.932,-0.386,0.732,2.808,0.427,53.333,324190.000,1.000
-3.027,4.296,-3.908,-11.543,-11.457,-7.469,-18.254,-7.899,0.013,0.933,-0.387,0.763,2.838,0.305,53.333,324191.000,1.000
3.954,-2.145,-1.546,-1.257,-2.588,-1.625,-4.491,-1.130,0.015,0.931,-0.389,0.793,2.899,0.336,53.333,324192.000,1.000
12.556,-0.919,5.641,10.154,8.626,7.676,10.352,8.839,0.015,0.930,-0.387,0.916,3.204,0.305,53.333,324193.000,1.000
13.074,9.099,10.801,9.940,11.581,12.060,12.970,13.507,0.016,0.931,-0.387,0.824,3.296,0.244,53.333,324194.000,1.000
6.199,15.675,8.843,0.565,6.486,9.082,6.393,10.884,0.016,0.931,-0.384,1.068,3.418,0.305,53.333,324195.000,1.000
1.826,9.918,3.335,-3.686,3.912,5.517,5.353,7.971,0.018,0.929,-0.385,1.221,3.540,0.244,53.333,324196.000,1.000
5.267,-1.446,1.628,3.692,10.012,7.859,15.602,10.927,0.017,0.930,-0.386,1.312,3.693,0.122,53.333,324197.000,1.000
10.118,-4.972,5.101,12.812,18.073,13.433,25.978,16.749,0.016,0.928,-0.387,1.343,3.815,0.122,53.333,324198.000,1.000
7.331,1.261,7.538,11.236,17.778,14.116,23.856,17.634,0.013,0.928,-0.383,1.434,3.876,-0.153,53.333,324199.000,1.000
-2.003,5.293,3.891,1.186,9.423,7.609,12.626,11.989,0.011,0.930,-0.383,1.556,3.906,-0.183,53.333,324200.000,1.000
-7.649,-1.672,-2.470,-3.386,3.712,1.000,7.285,7.031,0.010,0.931,-0.383,1.617,3.967,-0.427,53.333,324201.000,1.000
-4.030,-12.701,-4.353,3.885,7.112,1.348,13.924,8.996,0.009,0.930,-0.386,1.587,3.998,-0.519,53.333,324202.000,1.000
2.168,-14.553,-0.815,12.755,12.946,6.122,21.396,14.396,0.010,0.934,-0.381,1.801,3.937,-0.610,53.333,324203.000,1.000
1.237,-5.967,1.450,10.342,10.661,6.723,16.765,14.572,0.010,0.935,-0.379,1.740,3.815,-0.763,53.333,324204.000,1.000
-6.267,0.413,-2.692,-1.239,0.381,0.141,3.068,7.274,0.008,0.936,-0.380,1.617,3.784,-0.854,53.333,324205.000,1.000
-10.293,-4.667,-9.595,-7.731,-7.139,-7.077,-4.883,-0.394,0.007,0.934,-0.382,1.801,3.876,-1.007,53.333,324206.000,1.000
-4.782,-14.057,-11.294,-1.915,-4.784,-7.560,-0.409,-1.319,0.006,0.933,-0.383,1.648,3.723,-1.038,53.333,324207.000,1.000
4.364,-13.749,-5.897,7.017,1.803,-2.693,6.600,2.559,0.007,0.935,-0.381,1.648,3.662,-1.190,53.333,324208.000,1.000
7.339,-2.269,-0.114,6.323,2.293,-0.329,3.823,3.384,0.006,0.936,-0.380,1.648,3.662,-1.282,53.333,324209.000,1.000
3.512,7.052,-0.288,-2.824,-4.123,-3.769,-6.301,-1.599,0.008,0.936,-0.383,1.526,3.571,-1.404,53.333,324210.000,1.000
1.709,4.164,-4.064,-7.231,-7.910,-7.245,-10.071,-6.332,0.007,0.936,-0.385,1.404,3.479,-1.373,53.333,324211.000,1.000
7.488,-4.193,-4.095,-0.229,-2.804,-4.175,-1.878,-4.574,0.007,0.937,-0.385,1.465,3.448,-1.434,53.333,324212.000,1.000
15.324,-3.912,1.650,9.102,5.315,3.556,7.756,1.410,0.006,0.937,-0.382,1.465,3.418,-1.404,53.333,324213.000,1.000
16.294,7.006,7.071,8.585,6.470,8.052,6.554,3.996,0.005,0.938,-0.380,1.465,3.326,-1.404,53.333,324214.000,1.000
10.408,15.713,6.321,-0.213,0.324,6.103,-2.642,0.698,0.005,0.936,-0.381,1.404,3.326,-1.404,53.333,324215.000,1.000
6.801,12.496,2.056,-3.958,-3.097,3.639,-5.510,-2.198,0.004,0.939,-0.381,1.251,3.265,-1.282,53.333,324216.000,1.000
11.390,4.519,2.045,4.294,3.142,7.685,4.444,1.961,0.003,0.940,-0.382,1.160,3.082,-1.190,53.333,324217.000,1.000
18.750,5.878,8.483,15.513,13.432,16.578,17.080,10.985,0.003,0.939,-0.383,1.099,3.021,-1.190,53.333,324218.000,1.000
19.427,17.666,14.663,16.867,17.083,21.908,19.320,16.487,0.003,0.939,-0.379,1.007,3.021,-1.160,53.333,324219.000,1.000
12.707,25.829,13.774,8.949,12.536,19.650,12.577,14.876,0.002,0.939,-0.382,0.885,2.930,-1.129,53.333,324220.000,1.000
7.257,19.955,7.799,4.360,8.811,15.195,10.025,11.606,0.001,0.939,-0.380,0.793,2.686,-1.007,53.333,324221.000,1.000
8.912,7.277,4.387,9.787,12.434,15.457,17.708,13.031,0.003,0.939,-0.380,0.763,2.625,-0.946,53.333,324222.000,1.000
12.856,2.896,6.421,16.785,18.374,19.354,26.081,17.578,0.005,0.938,-0.380,0.641,2.594,-0.916,53.333,324223.000,1.000
10.890,9.652,8.669,13.962,17.513,19.845,23.689,18.430,0.004,0.939,-0.381,0.488,2.533,-0.763,53.333,324224.000,1.000
3.275,14.939,5.671,3.291,9.826,14.245,13.520,13.521,0.003,0.941,-0.380,0.275,2.380,-0.793,53.333,324225.000,1.000
-1.311,8.677,-0.216,-2.112,4.887,8.423,9.233,8.879,0.005,0.938,-0.382,0.214,2.380,-0.580,53.333,324226.000,1.000
2.249,-2.599,-1.921,4.135,8.788,8.884,16.325,10.471,0.005,0.938,-0.380,0.244,2.258,-0.519,53.333,324227.000,1.000
7.970,-5.169,2.169,12.589,15.291,13.412,24.044,15.580,0.006,0.936,-0.379,0.122,2.289,-0.488,53.333,324228.000,1.000
6.582,2.396,5.486,10.629,13.866,13.574,19.667,16.023,0.006,0.934,-0.380,0.061,2.197,-0.397,53.333,324229.000,1.000
-1.683,7.106,2.201,-0.277,3.982,6.086,5.835,9.196,0.008,0.934,-0.381,0.031,2.228,-0.305,53.333,324230.000,1.000
-7.243,-0.487,-4.767,-6.738,-4.246,-2.799,-3.175,1.546,0.008,0.933,-0.383,0.061,2.167,-0.275,53.333,324231.000,1.000
-4.225,-13.183,-7.836,-2.087,-3.984,-5.950,-1.128,-0.340,0.007,0.933,-0.384,0.000,1.953,-0.183,53.333,324232.000,1.000
1.732,-16.838,-5.062,4.569,-0.717,-4.866,1.994,1.498,0.006,0.933,-0.383,-0.061,1.953,-0.153,53.333,324233.000,1.000
1.754,-9.329,-2.298,1.540,-3.855,-6.773,-5.286,-0.030,0.006,0.932,-0.381,-0.092,2.014,-0.061,53.333,324234.000,1.000
-3.320,-2.515,-4.203,-8.299,-12.560,-13.373,-18.733,-6.179,0.005,0.933,-0.379,-0.122,2.014,0.092,53.333,324235.000,1.000
-3.597,-4.962,-6.997,-10.584,-15.897,-17.344,-23.036,-9.688,0.006,0.934,-0.381,-0.122,2.075,0.092,53.333,324236.000,1.000
6.313,-9.585,-3.246,1.135,-7.436,-11.808,-12.271,-4.319,0.006,0.934,-0.380,-0.122,2.075,0.061,53.333,324237.000,1.000
19.850,-3.180,8.066,16.565,6.027,0.423,2.173,6.670,0.007,0.933,-0.377,-0.183,1.953,0.092,53.333,324238.000,1.000
26.844,14.651,19.440,22.052,13.097,9.993,6.596,14.303,0.008,0.933,-0.382,-0.153,1.892,0.000,53.333,324239.000,1.000
25.855,29.062,23.423,17.574,11.671,12.057,2.059,14.613,0.008,0.935,-0.381,-0.183,1.923,-0.061,53.333,324240.000,1.000
24.431,28.327,21.048,14.990,9.952,11.005,1.049,12.456,0.008,0.932,-0.381,-0.122,1.892,-0.092,53.333,324241.000,1.000
27.331,18.119,18.930,20.361,13.616,12.779,8.752,13.477,0.009,0.933,-0.379,-0.122,1.862,-0.092,53.333,324242.000,1.000
29.162,12.436,19.252,24.947,17.116,15.681,15.041,15.533,0.009,0.934,-0.379,-0.061,2.045,-0.183,53.333,324243.000,1.000
22.255,14.546,17.145,17.854,11.812,13.051,8.843,12.005,0.010,0.936,-0.382,-0.153,1.892,-0.061,53.333,324244.000,1.000
8.846,14.266,9.066,2.723,-0.380,4.029,-5.046,2.405,0.009,0.938,-0.381,-0.122,1.831,-0.122,53.333,324245.000,1.000
0.066,4.522,-0.137,-5.347,-7.463,-3.215,-10.675,-5.062,0.009,0.939,-0.380,-0.122,1.923,-0.153,53.333,324246.000,1.000
2.207,-6.773,-2.232,0.691,-2.310,-1.225,-1.626,-3.409,0.010,0.938,-0.379,-0.122,1.984,-0.244,53.333,324247.000,1.000
8.725,-6.637,3.696,10.492,8.045,6.975,10.475,3.968,0.013,0.938,-0.382,-0.183,2.014,-0.183,53.333,324248.000,1.000
9.224,4.963,9.789,10.372,11.767,11.784,11.640,7.745,0.015,0.936,-0.381,-0.122,2.075,-0.244,53.333,324249.000,1.000
3.118,14.076,9.369,1.472,7.459,9.352,3.904,4.713,0.013,0.937,-0.380,-0.122,2.136,-0.305,53.333,324250.000,1.000
-0.712,10.531,4.824,-2.860,4.588,5.589,1.253,1.030,0.011,0.937,-0.380,-0.031,2.136,-0.214,53.333,324251.000,1.000
2.778,0.689,3.192,3.691,9.183,6.964,9.297,2.781,0.011,0.936,-0.380,-0.031,2.167,-0.336,53.333,324252.000,1.000
7.350,-1.952,5.991,11.448,15.022,11.201,17.143,7.259,0.013,0.938,-0.379,-0.122,2.258,-0.275,53.333,324253.000,1.000
4.235,4.716,7.317,8.347,12.444,10.647,12.629,6.939,0.012,0.936,-0.377,-0.031,2.319,-0.336,53.333,324254.000,1.000
-5.222,9.149,2.604,-2.969,2.321,3.346,-0.402,0.375,0.010,0.938,-0.379,0.061,2.441,-0.397,53.333,324255.000,1.000
-10.644,2.959,-4.276,-8.303,-4.364,-3.660,-6.795,-5.209,0.010,0.937,-0.377,0.122,2.350,-0.488,53.333,324256.000,1.000
-6.227,-6.753,-5.648,-1.105,-1.016,-3.525,-0.405,-3.398,0.011,0.936,-0.379,0.122,2.411,-0.427,53.333,324257.000,1.000
1.450,-7.104,-0.472,8.450,5.620,1.016,7.580,2.574,0.010,0.934,-0.376,0.122,2.319,-0.458,53.333,324258.000,1.000
2.278,2.331,3.940,7.181,4.534,1.177,3.876,3.972,0.010,0.933,-0.376,0.153,2.319,-0.427,53.333,324259.000,1.000
-3.850,8.397,1.616,-3.262,-4.667,-5.961,-8.896,-1.742,0.010,0.933,-0.377,0.153,2.289,-0.580,53.333,324260.000,1.000
-7.576,1.942,-4.440,-9.169,-11.663,-13.685,-16.339,-7.932,0.013,0.932,-0.379,0.275,2.350,-0.610,53.333,324261.000,1.000
-3.647,-9.917,-6.956,-4.106,-9.974,-15.061,-12.534,-8.407,0.013,0.931,-0.379,0.275,2.441,-0.580,53.333,324262.000,1.000
1.749,-13.334,-4.428,2.347,-5.613,-12.134,-7.882,-5.848,0.013,0.930,-0.378,0.397,2.441,-0.488,53.333,324263.000,1.000
0.093,-5.950,-2.535,-1.418,-7.889,-12.185,-13.668,-7.308,0.012,0.929,-0.375,0.580,2.502,-0.519,53.333,324264.000,1.000
-6.774,0.990,-5.281,-11.948,-15.462,-16.544,-25.087,-13.314,0.010,0.931,-0.372,0.671,2.563,-0.610,53.333,324265.000,1.000
-8.451,-1.041,-8.635,-14.626,-17.442,-17.957,-26.793,-16.179,0.012,0.930,-0.376,0.946,2.625,-0.671,53.333,324266.000,1.000
-0.204,-6.035,-5.878,-3.584,-8.404,-10.559,-13.804,-10.275,0.012,0.927,-0.377,1.099,2.686,-0.671,53.333,324267.000,1.000
9.931,-2.519,2.601,9.712,3.385,1.247,0.993,-0.234,0.012,0.926,-0.379,1.221,2.747,-0.610,53.333,324268.000,1.000
11.076,9.202,8.665,11.096,6.078,7.420,3.250,4.329,0.011,0.926,-0.377,1.343,2.777,-0.702,53.333,324269.000,1.000
3.299,16.106,6.372,1.858,-0.683,4.610,-4.542,0.790,0.012,0.928,-0.382,1.465,2.838,-0.641,53.333,324270.000,1.000
-2.985,9.934,-0.418,-3.812,-5.771,0.016,-7.328,-3.505,0.012,0.929,-0.377,1.495,2.899,-0.671,53.333,324271.000,1.000
-0.724,-0.666,-2.815,1.954,-1.313,1.894,2.010,-0.946,0.009,0.931,-0.378,1.709,2.899,-0.793,53.333,324272.000,1.000
5.393,-0.779,2.038,10.953,7.632,9.290,13.730,6.823,0.008,0.929,-0.377,1.740,2.930,-0.916,53.333,324273.000,1.000
6.298,10.819,7.765,11.034,10.702,14.045,15.151,11.642,0.008,0.932,-0.378,1.709,2.838,-0.977,53.333,324274.000,1.000
1.126,19.769,7.541,3.004,6.373,11.987,7.922,9.808,0.008,0.934,-0.377,1.892,2.716,-0.977,53.333,324275.000,1.000
-1.986,15.404,3.111,-0.769,3.500,8.285,5.260,6.597,0.007,0.935,-0.375,1.953,2.777,-1.129,53.333,324276.000,1.000
1.936,4.562,1.504,5.776,8.126,9.501,12.900,8.090,0.007,0.933,-0.375,2.014,2.777,-1.221,53.333,324277.000,1.000
6.841,1.307,4.423,13.146,14.233,13.700,20.454,11.998,0.009,0.933,-0.377,1.984,2.777,-1.221,53.333,324278.000,1.000
3.999,7.733,5.983,9.433,12.168,13.238,16.005,11.066,0.008,0.934,-0.380,2.167,2.686,-1.251,53.333,324279.000,1.000
-4.990,12.292,1.892,-2.299,2.995,6.348,3.664,4.244,0.006,0.935,-0.379,2.075,2.777,-1.251,53.333,324280.000,1.000
-9.214,7.085,-3.404,-7.116,-1.804,0.755,-0.928,-0.637,0.008,0.936,-0.379,2.289,2.838,-1.343,53.333,324281.000,1.000
-2.616,-0.321,-2.024,1.940,4.614,3.801,8.530,3.068,0.008,0.936,-0.377,2.258,2.777,-1.373,53.333,324282.000,1.000
7.828,2.720,6.508,14.251,15.051,12.391,20.263,11.560,0.007,0.934,-0.381,2.167,2.747,-1.282,53.333,324283.000,1.000
11.076,15.612,13.783,15.480,17.439,16.555,19.859,14.994,0.008,0.933,-0.383,2.167,2.747,-1.343,53.333,324284.000,1.000
6.133,24.010,12.880,6.202,10.336,12.072,8.984,9.910,0.008,0.932,-0.383,2.258,2.777,-1.251,53.333,324285.000,1.000
2.501,18.602,7.041,0.295,4.067,5.426,2.214,3.239,0.008,0.932,-0.381,2.380,2.838,-1.251,53.333,324286.000,1.000
6.960,7.861,5.229,5.854,6.498,4.872,6.956,2.857,0.007,0.936,-0.382,2.319,2.838,-1.282,53.333,324287.000,1.000
14.747,6.912,10.423,14.712,12.847,9.697,13.954,7.440,0.009,0.934,-0.382,2.350,2.838,-1.190,53.333,324288.000,1.000
16.613,17.211,16.096,14.377,12.926,11.853,10.809,8.919,0.009,0.934,-0.381,2.411,2.869,-1.129,53.333,324289.000,1.000
11.565,24.681,15.268,5.406,5.366,7.264,-0.665,3.726,0.008,0.936,-0.383,2.319,2.869,-1.068,53.333,324290.000,1.000
7.629,18.729,9.534,0.113,-0.978,1.023,-7.328,-2.773,0.006,0.937,-0.383,2.319,2.869,-0.977,53.333,324291.000,1.000
10.032,6.262,6.097,4.862,0.100,-0.283,-3.390,-4.254,0.003,0.938,-0.383,2.411,2.899,-0.946,53.333,324292.000,1.000
13.653,1.842,7.468,10.997,3.343,2.052,1.567,-2.242,0.002,0.939,-0.384,2.380,2.930,-0.946,53.333,324293.000,1.000
10.269,7.720,8.190,7.010,-0.442,0.890,-3.634,-3.573,0.003,0.937,-0.385,2.197,2.991,-0.854,53.333,324294.000,1.000
0.461,11.253,2.926,-5.111,-11.056,-6.276,-15.527,-10.315,0.004,0.938,-0.382,2.167,3.021,-0.854,53.333,324295.000,1.000
-6.621,2.970,-5.575,-12.219,-18.514,-13.224,-20.165,-16.410,0.004,0.937,-0.385,2.167,3.021,-0.916,53.333,324296.000,1.000
-5.566,-9.969,-9.919,-7.985,-16.400,-13.277,-12.244,-15.936,0.006,0.937,-0.385,2.106,2.930,-0.763,53.333,324297.000,1.000
-1.897,-13.360,-7.984,-1.461,-10.399,-8.347,-2.555,-11.293,0.006,0.938,-0.385,2.075,2.899,-0.824,53.333,324298.000,1.000
-3.869,-5.026,-5.248,-4.019,-9.852,-5.898,-2.979,-9.534,0.004,0.937,-0.385,1.953,2.869,-0.702,53.333,324299.000,1.000
-10.538,2.695,-6.612,-13.023,-14.310,-8.242,-9.877,-12.105,0.005,0.936,-0.383,1.862,2.808,-0.763,53.333,324300.000,1.000
-13.073,-0.050,-9.539,-15.314,-14.173,-9.414,-9.232,-12.723,0.006,0.938,-0.385,1.831,2.869,-0.702,53.333,324301.000,1.000
-7.317,-7.481,-7.898,-5.626,-4.490,-3.826,3.601,-6.320,0.006,0.934,-0.383,1.831,2.899,-0.702,53.333,324302.000,1.000
-0.393,-7.123,-1.365,5.306,7.053,5.086,16.582,3.052,0.008,0.935,-0.381,1.770,2.869,-0.732,53.333,324303.000,1.000
-2.157,1.527,2.648,4.174,9.064,8.161,16.151,6.278,0.007,0.937,-0.379,1.770,2.869,-0.732,53.333,324304.000,1.000
-12.175,5.578,-1.584,-7.355,1.130,2.330,4.987,0.748,0.006,0.935,-0.382,1.709,2.808,-0.641,53.333,324305.000,1.000
-19.825,-3.014,-9.886,-14.774,-5.526,-4.910,-1.619,-5.976,0.005,0.936,-0.384,1.678,2.808,-0.702,53.333,324306.000,1.000
-18.039,-15.321,-13.100,-10.110,-2.834,-5.092,3.758,-5.943,0.007,0.935,-0.378,1.587,2.899,-0.702,53.333,324307.000,1.000
-11.898,-16.544,-8.633,-1.966,4.042,0.538,11.429,-0.792,0.006,0.933,-0.381,1.495,2.930,-0.732,53.333,324308.000,1.000
-10.690,-5.570,-3.187,-2.789,4.772,3.574,8.899,1.387,0.006,0.933,-0.387,1.556,2.869,-0.763,53.333,324309.000,1.000
-15.017,3.514,-3.456,-11.505,-1.661,0.210,-1.589,-2.591,0.005,0.935,-0.385,1.495,2.899,-0.793,53.333,324310.000,1.000
-16.567,0.250,-7.440,-15.367,-5.878,-3.901,-6.407,-6.992,0.006,0.935,-0.384,1.526,2.899,-0.824,53.333,324311.000,1.000
-10.328,-8.487,-7.860,-8.022,-1.497,-1.980,0.202,-5.617,0.006,0.939,-0.383,1.434,2.960,-0.885,53.333,324312.000,1.000
-1.771,-8.188,-2.307,1.741,6.106,4.478,8.196,-0.365,0.006,0.939,-0.381,1.312,2.838,-0.916,53.333,324313.000,1.000
0.956,3.641,3.957,2.722,7.795,8.263,6.213,2.073,0.008,0.938,-0.382,1.190,2.838,-1.007,53.333,324314.000,1.000
-1.814,14.083,5.401,-3.106,3.362,6.412,-2.535,-0.186,0.008,0.934,-0.381,1.099,2.838,-0.977,53.333,324315.000,1.000
-2.296,12.070,3.314,-3.916,1.152,3.642,-5.187,-1.927,0.008,0.935,-0.383,1.007,2.930,-1.099,53.333,324316.000,1.000
3.322,2.854,3.184,4.789,5.655,5.005,2.284,1.360,0.010,0.937,-0.384,0.916,2.899,-1.282,53.333,324317.000,1.000
8.654,-0.389,5.967,12.854,10.244,7.922,8.588,6.293,0.010,0.939,-0.384,0.916,2.960,-1.373,53.333,324318.000,1.000
5.263,4.532,5.997,8.726,5.783,5.254,2.216,5.486,0.011,0.937,-0.385,0.854,3.021,-1.526,53.333,324319.000,1.000
-5.083,6.589,-0.561,-4.082,-5.858,-3.871,-11.853,-1.863,0.010,0.934,-0.384,0.580,3.113,-1.678,53.333,324320.000,1.000
-11.502,-1.505,-8.886,-10.542,-12.675,-11.059,-17.479,-7.734,0.012,0.932,-0.385,0.580,3.174,-1.678,53.333,324321.000,1.000
-8.033,-11.818,-10.902,-3.910,-7.867,-8.912,-8.522,-5.542,0.011,0.930,-0.387,0.580,3.204,-1.709,53.333,324322.000,1.000
-1.396,-11.478,-5.845,5.315,1.222,-0.733,3.101,1.041,0.011,0.931,-0.384,0.610,3.296,-1.648,53.333,324323.000,1.000
-1.753,-0.600,-1.415,3.717,2.932,3.761,3.572,2.961,0.012,0.932,-0.383,0.580,3.418,-1.587,53.333,324324.000,1.000
-9.292,6.900,-3.893,-7.166,-3.629,0.772,-4.762,-2.374,0.009,0.933,-0.385,0.702,3.357,-1.556,53.333,324325.000,1.000
-14.467,1.497,-10.099,-13.363,-8.237,-3.450,-7.601,-7.932,0.007,0.934,-0.382,0.671,3.479,-1.556,53.333,324326.000,1.000
-11.091,-9.183,-11.839,-7.564,-3.891,-1.725,1.207,-6.568,0.005,0.932,-0.381,0.580,3.418,-1.617,53.333,324327.000,1.000
-4.832,-11.146,-7.302,0.868,3.354,3.776,10.834,-0.806,0.003,0.931,-0.382,0.641,3.265,-1.648,53.333,324328.000,1.000
-5.391,-3.431,-3.689,-1.263,2.597,4.297,8.086,0.530,0.000,0.933,-0.384,0.610,3.357,-1.495,53.333,324329.000,1.000
-12.786,1.081,-7.026,-12.557,-6.549,-3.027,-4.187,-5.329,0.001,0.932,-0.383,0.610,3.326,-1.495,53.333,324330.000,1.000
-17.153,-5.939,-13.661,-18.822,-13.053,-10.648,-10.645,-11.189,-0.001,0.933,-0.378,0.610,3.174,-1.526,53.333,324331.000,1.000
-12.352,-16.332,-15.198,-12.638,-9.386,-10.498,-4.232,-9.826,0.000,0.932,-0.379,0.671,2.991,-1.495,53.333,324332.000,1.000
-4.219,-16.358,-9.775,-3.311,-1.452,-4.531,4.638,-3.732,-0.001,0.929,-0.382,0.732,2.960,-1.434,53.333,324333.000,1.000
-2.379,-5.721,-4.423,-3.829,-0.209,-1.734,2.784,-1.541,-0.001,0.930,-0.381,0.793,2.838,-1.495,53.333,324334.000,1.000
-7.059,1.694,-5.363,-12.966,-6.628,-5.802,-7.563,-6.182,0.000,0.932,-0.381,0.732,2.808,-1.465,53.333,324335.000,1.000
-8.931,-3.272,-9.487,-17.132,-10.593,-10.254,-12.026,-10.928,0.001,0.932,-0.382,0.671,2.777,-1.465,53.333,324336.000,1.000
-2.280,-12.585,-8.866,-9.371,-5.210,-7.703,-4.248,-8.839,0.000,0.933,-0.385,0.732,2.777,-1.495,53.333,324337.000,1.000
6.628,-12.260,-2.016,0.814,3.368,-0.388,5.069,-2.520,0.000,0.932,-0.384,0.732,2.563,-1.312,53.333,324338.000,1.000
7.748,-1.759,3.783,0.523,4.299,2.664,2.834,-0.592,0.002,0.933,-0.383,0.702,2.563,-1.312,53.333,324339.000,1.000
0.787,5.124,2.284,-8.796,-3.163,-2.231,-8.522,-5.882,0.001,0.933,-0.384,0.671,2.472,-1.251,53.333,324340.000,1.000
-4.680,-1.052,-3.457,-13.575,-8.947,-8.784,-14.706,-11.716,0.000,0.933,-0.381,0.671,2.502,-1.099,53.333,324341.000,1.000
-2.446,-12.657,-5.534,-7.038,-6.311,-9.673,-9.444,-11.208,0.003,0.935,-0.381,0.824,2.594,-1.099,53.333,324342.000,1.000
2.231,-15.539,-2.051,1.488,-1.121,-6.506,-2.967,-6.595,0.005,0.937,-0.379,0.793,2.441,-1.129,53.333,324343.000,1.000
0.743,-8.148,0.639,-0.299,-3.389,-7.050,-7.417,-5.770,0.004,0.936,-0.379,0.793,2.472,-0.977,53.333,324344.000,1.000
-6.148,-2.968,-2.745,-10.385,-12.851,-13.705,-19.478,-11.004,0.004,0.940,-0.380,0.763,2.502,-1.007,53.333,324345.000,1.000
-9.104,-8.817,-8.849,-15.234,-18.965,-19.657,-24.662,-15.795,0.002,0.939,-0.381,0.610,2.472,-1.068,53.333,324346.000,1.000
-3.581,-18.705,-10.522,-8.840,-15.549,-18.295,-17.516,-14.265,0.003,0.938,-0.383,0.610,2.441,-1.007,53.333,324347.000,1.000
3.093,-19.809,-7.043,-1.355,-9.535,-12.633,-9.496,-9.719,0.005,0.938,-0.383,0.610,2.380,-0.916,53.333,324348.000,1.000
1.430,-11.263,-5.088,-4.861,-11.208,-11.120,-13.002,-9.951,0.002,0.938,-0.384,0.610,2.319,-0.885,53.333,324349.000,1.000
-6.592,-4.721,-8.705,-15.679,-19.066,-15.240,-23.311,-15.450,0.003,0.938,-0.382,0.549,2.350,-0.885,53.333,324350.000,1.000
-9.346,-7.445,-12.764,-18.381,-20.876,-16.620,-24.054,-17.554,0.003,0.937,-0.384,0.458,2.319,-0.885,53.333,324351.000,1.000
-1.255,-12.050,-9.714,-6.854,-10.273,-8.427,-9.535,-10.056,0.004,0.934,-0.383,0.458,2.258,-0.793,53.333,324352.000,1.000
9.222,-7.101,-0.337,6.769,4.052,4.740,6.989,1.806,0.004,0.935,-0.383,0.427,2.289,-0.824,53.333,324353.000,1.000
10.224,5.924,6.258,7.704,9.127,11.961,10.407,7.400,0.004,0.939,-0.382,0.488,2.350,-0.824,53.333,324354.000,1.000
1.272,12.874,3.553,-2.644,3.631,9.086,2.678,3.630,0.005,0.937,-0.384,0.397,2.350,-0.793,53.333,324355.000,1.000
-6.842,5.282,-4.360,-9.403,-1.691,3.028,-1.287,-1.884,0.006,0.935,-0.384,0.427,2.289,-0.763,53.333,324356.000,1.000
-6.260,-7.760,-8.035,-4.205,1.112,2.177,5.693,-1.083,0.007,0.931,-0.381,0.427,2.258,-0.793,53.333,324357.000,1.000
-1.434,-11.128,-4.545,4.418,7.074,5.665,13.865,4.355,0.006,0.930,-0.381,0.610,2.228,-0.885,53.333,324358.000,1.000
-1.379,-3.164,-0.178,3.957,6.364,5.816,11.000,6.376,0.007,0.931,-0.382,0.610,2.228,-0.916,53.333,324359.000,1.000
-6.257,3.209,-0.834,-4.226,-1.163,-0.158,0.061,2.309,0.005,0.932,-0.384,0.732,2.350,-0.732,53.333,324360.000,1.000
-7.375,-1.306,-3.915,-7.124,-5.534,-5.952,-4.758,-1.581,0.005,0.935,-0.382,0.671,2.441,-0.763,53.333,324361.000,1.000
-0.049,-9.712,-2.498,1.239,-0.631,-4.979,2.196,0.803,0.005,0.934,-0.382,0.732,2.472,-0.916,53.333,324362.000,1.000
9.088,-8.747,4.444,11.034,7.127,0.344,10.114,6.660,0.005,0.935,-0.383,0.793,2.441,-0.946,53.333,324363.000,1.000
10.555,2.158,9.986,9.897,7.340,1.663,6.532,7.940,0.006,0.935,-0.381,0.702,2.380,-0.916,53.333,324364.000,1.000
4.718,9.436,8.380,-0.061,-0.281,-3.987,-5.513,2.359,0.007,0.933,-0.379,0.671,2.472,-0.824,53.333,324365.000,1.000
1.124,3.674,2.791,-5.091,-5.716,-10.198,-11.686,-3.456,0.009,0.934,-0.382,0.732,2.502,-0.824,53.333,324366.000,1.000
5.244,-7.575,0.912,1.327,-2.571,-10.020,-6.061,-3.018,0.009,0.935,-0.383,0.763,2.594,-0.854,53.333,324367.000,1.000
11.099,-9.989,4.610,9.758,3.294,-5.260,1.059,1.401,0.008,0.933,-0.383,0.793,2.716,-0.824,53.333,324368.000,1.000
9.710,-1.884,7.571,7.964,2.065,-3.691,-2.290,2.156,0.007,0.934,-0.381,0.854,2.777,-0.732,53.333,324369.000,1.000
1.478,3.717,3.969,-2.480,-6.495,-8.255,-13.216,-3.330,0.005,0.935,-0.379,0.946,2.838,-0.732,53.333,324370.000,1.000
-4.182,-2.562,-3.377,-8.570,-12.569,-12.849,-17.928,-9.075,0.006,0.932,-0.380,0.854,2.930,-0.732,53.333,324371.000,1.000
-1.402,-13.112,-6.546,-3.796,-9.549,-10.587,-10.711,-8.779,0.006,0.935,-0.381,0.916,2.960,-0.671,53.333,324372.000,1.000
4.311,-13.830,-3.230,2.905,-3.076,-3.509,-1.998,-4.681,0.006,0.936,-0.383,0.916,2.930,-0.641,53.333,324373.000,1.000
3.844,-3.757,0.264,-0.308,-3.252,-0.137,-4.204,-4.558,0.005,0.936,-0.384,0.763,2.991,-0.549,53.333,324374.000,1.000
-2.725,3.535,-1.999,-11.355,-10.576,-3.976,-14.653,-10.759,0.006,0.934,-0.381,0.854,3.021,-0.732,53.333,324375.000,1.000
-5.932,-1.183,-7.009,-16.433,-14.971,-8.618,-19.018,-16.405,0.007,0.934,-0.378,0.854,3.082,-0.580,53.333,324376.000,1.000
0.454,-9.617,-6.471,-8.312,-9.159,-6.016,-10.417,-14.054,0.005,0.935,-0.378,0.885,3.082,-0.610,53.333,324377.000,1.000
11.154,-6.930,2.098,4.161,1.812,3.184,1.879,-5.292,0.003,0.934,-0.376,0.977,3.174,-0.610,53.333,324378.000,1.000
16.598,7.951,11.938,8.244,7.805,11.105,5.782,1.727,0.003,0.932,-0.374,1.007,3.021,-0.610,53.333,324379.000,1.000
15.564,20.666,16.061,4.445,7.510,13.606,3.185,3.397,0.003,0.933,-0.377,1.160,3.113,-0.519,53.333,324380.000,1.000
15.675,20.406,15.975,4.817,9.460,15.137,6.565,4.826,0.002,0.935,-0.381,1.251,3.174,-0.549,53.333,324381.000,1.000
21.204,13.292,18.023,14.795,18.602,20.690,19.918,11.230,0.003,0.934,-0.378,1.068,3.021,-0.580,53.333,324382.000,1.000
25.828,12.358,23.072,24.364,27.716,26.865,31.205,19.153,0.004,0.933,-0.380,1.129,3.082,-0.519,53.333,324383.000,1.000
20.937,18.701,24.505,21.319,26.339,25.396,27.690,20.347,0.003,0.935,-0.380,1.160,2.991,-0.519,53.333,324384.000,1.000
8.023,20.091,17.420,8.266,15.081,14.574,13.314,13.048,0.004,0.936,-0.379,1.129,3.052,-0.519,53.333,324385.000,1.000
-2.260,8.789,6.248,-0.305,5.504,2.727,4.036,4.970,0.005,0.935,-0.381,1.129,3.082,-0.519,53.333,324386.000,1.000
-3.466,-6.367,-0.031,2.927,5.448,-1.488,7.252,3.675,0.005,0.934,-0.381,1.160,2.960,-0.488,53.333,324387.000,1.000
-0.973,-10.759,1.143,9.037,9.675,0.799,13.197,7.326,0.006,0.932,-0.383,1.129,2.991,-0.427,53.333,324388.000,1.000
-3.472,-3.062,3.594,6.153,8.359,1.615,9.764,8.307,0.003,0.934,-0.386,1.099,3.082,-0.336,53.333,324389.000,1.000
-10.347,3.402,1.543,-3.567,1.232,-2.381,-0.197,4.306,0.003,0.935,-0.384,1.251,3.082,-0.427,53.333,324390.000,1.000
-12.702,-1.349,-2.710,-7.003,-2.373,-5.868,-3.218,1.322,0.004,0.938,-0.385,1.160,3.113,-0.458,53.333,324391.000,1.000
-6.590,-11.193,-3.003,1.065,2.551,-3.513,5.114,4.539,0.004,0.937,-0.382,1.190,3.113,-0.397,53.333,324392.000,1.000
0.255,-13.407,0.937,9.756,8.590,1.349,12.931,10.154,0.004,0.936,-0.382,1.160,3.021,-0.427,53.333,324393.000,1.000
-1.857,-6.685,2.360,6.474,5.494,0.682,7.915,10.022,0.005,0.936,-0.381,1.160,2.991,-0.244,53.333,324394.000,1.000
-11.487,-2.649,-3.248,-5.830,-5.642,-7.006,-5.643,2.827,0.004,0.937,-0.382,1.099,2.899,-0.244,53.333,324395.000,1.000
-17.795,-9.218,-11.595,-12.589,-13.515,-14.096,-12.462,-3.943,0.004,0.937,-0.382,1.007,2.991,-0.214,53.333,324396.000,1.000
-14.850,-19.068,-14.885,-7.355,-11.613,-13.700,-6.903,-4.018,0.004,0.935,-0.384,1.099,3.021,-0.214,53.333,324397.000,1.000
-8.918,-19.271,-11.752,-0.068,-6.411,-8.452,-0.130,-0.505,0.005,0.936,-0.383,1.038,2.899,-0.214,53.333,324398.000,1.000
-9.231,-9.153,-8.601,-2.855,-7.889,-6.526,-4.291,-1.234,0.004,0.934,-0.382,1.007,2.899,-0.275,53.333,324399.000,1.000
-15.286,-1.697,-10.704,-13.166,-15.626,-10.452,-15.697,-7.823,0.004,0.935,-0.382,0.977,2.960,-0.244,53.333,324400.000,1.000
-17.901,-6.060,-15.041,-17.302,-19.399,-13.825,-19.893,-13.307,0.005,0.937,-0.383,0.977,2.869,-0.275,53.333,324401.000,1.000
-12.339,-15.222,-14.779,-9.469,-13.504,-10.474,-11.704,-11.704,0.006,0.935,-0.384,0.977,2.838,-0.305,53.333,324402.000,1.000
-5.375,-15.988,-9.321,-0.201,-5.149,-3.517,-2.728,-6.503,0.004,0.935,-0.384,0.977,2.869,-0.275,53.333,324403.000,1.000
-6.232,-7.264,-5.613,-2.157,-4.909,-1.373,-5.497,-6.011,0.005,0.936,-0.382,0.946,2.869,-0.336,53.333,324404.000,1.000
-13.760,-1.243,-8.599,-12.688,-12.167,-6.065,-15.989,-11.767,0.005,0.935,-0.380,0.977,2.838,-0.397,53.333,324405.000,1.000
-17.847,-6.194,-14.269,-17.465,-15.885,-10.210,-18.924,-16.220,0.007,0.936,-0.382,0.977,2.838,-0.366,53.333,324406.000,1.000
-13.382,-14.883,-15.127,-10.317,-9.852,-7.090,-8.803,-13.038,0.008,0.934,-0.385,0.977,2.869,-0.336,53.333,324407.000,1.000
-7.564,-14.820,-10.708,-1.942,-1.475,-0.056,2.259,-5.970,0.006,0.933,-0.383,0.946,2.716,-0.427,53.333,324408.000,1.000
-10.365,-6.062,-8.520,-5.346,-1.900,1.709,0.783,-3.981,0.007,0.937,-0.383,1.007,2.777,-0.366,53.333,324409.000,1.000
-21.011,-1.603,-13.811,-17.891,-10.841,-4.509,-9.902,-9.156,0.005,0.939,-0.380,0.946,2.777,-0.458,53.333,324410.000,1.000
-28.925,-9.616,-22.158,-24.649,-16.967,-11.405,-14.499,-13.970,0.001,0.941,-0.378,0.824,2.686,-0.458,53.333,324411.000,1.000
-27.545,-21.799,-24.955,-18.386,-13.144,-11.527,-6.724,-11.552,0.002,0.938,-0.382,0.610,2.655,-0.488,53.333,324412.000,1.000
-22.035,-23.831,-20.207,-8.623,-5.406,-6.845,2.675,-4.618,0.003,0.937,-0.381,0.671,2.716,-0.519,53.333,324413.000,1.000
-20.985,-14.102,-14.321,-7.792,-3.785,-5.210,1.442,-1.176,0.005,0.935,-0.383,0.671,2.716,-0.580,53.333,324414.000,1.000
-24.195,-5.410,-13.045,-14.120,-8.263,-9.119,-7.095,-3.450,0.007,0.933,-0.382,0.641,2.655,-0.641,53.333,324415.000,1.000
-23.550,-7.418,-14.107,-14.837,-9.290,-12.354,-9.002,-5.324,0.007,0.934,-0.381,0.580,2.625,-0.641,53.333,324416.000,1.000
-15.613,-14.066,-11.475,-4.899,-1.885,-9.054,0.336,-1.558,0.007,0.932,-0.383,0.671,2.594,-0.580,53.333,324417.000,1.000
-7.967,-13.131,-4.974,5.017,6.395,-2.554,9.021,4.221,0.008,0.932,-0.381,0.641,2.502,-0.641,53.333,324418.000,1.000
-9.890,-4.324,-1.605,2.552,4.881,-1.634,4.300,3.949,0.007,0.933,-0.382,0.671,2.563,-0.671,53.333,324419.000,1.000
-19.928,-0.502,-6.436,-9.537,-6.079,-9.061,-10.294,-3.928,0.004,0.934,-0.380,0.671,2.625,-0.702,53.333,324420.000,1.000
-27.297,-9.788,-15.251,-16.724,-15.294,-17.720,-19.476,-11.770,0.005,0.936,-0.377,0.671,2.716,-0.671,53.333,324421.000,1.000
-25.136,-23.003,-18.953,-11.459,-14.781,-19.327,-15.909,-11.930,0.007,0.939,-0.382,0.580,2.716,-0.702,53.333,324422.000,1.000
-18.124,-24.527,-14.350,-2.082,-8.959,-14.242,-8.513,-5.809,0.008,0.939,-0.381,0.549,2.594,-0.702,53.333,324423.000,1.000
-15.053,-12.755,-7.529,-0.558,-7.383,-9.876,-8.970,-1.241,0.006,0.938,-0.380,0.458,2.563,-0.641,53.333,324424.000,1.000
-16.903,-2.192,-5.504,-6.230,-11.464,-10.285,-15.505,-2.047,0.007,0.936,-0.380,0.458,2.502,-0.610,53.333,324425.000,1.000
-16.443,-4.038,-7.337,-7.639,-13.239,-11.140,-16.084,-3.759,0.005,0.936,-0.382,0.336,2.411,-0.519,53.333,324426.000,1.000
-9.478,-11.752,-6.580,0.519,-7.466,-6.709,-6.134,-0.954,0.005,0.936,-0.377,0.458,2.441,-0.610,53.333,324427.000,1.000
-1.736,-10.989,-1.144,9.189,0.268,1.293,4.295,4.451,0.003,0.935,-0.380,0.549,2.502,-0.580,53.333,324428.000,1.000
-1.367,0.378,3.564,7.314,1.159,5.776,4.290,5.855,-0.001,0.936,-0.381,0.549,2.350,-0.549,53.333,324429.000,1.000
-7.335,9.724,2.567,-2.348,-4.081,4.362,-2.357,1.776,0.001,0.935,-0.378,0.427,2.350,-0.580,53.333,324430.000,1.000
-10.312,7.382,-1.316,-6.459,-5.702,2.909,-2.033,-1.496,0.001,0.935,-0.380,0.488,2.228,-0.580,53.333,324431.000,1.000
-5.415,-0.442,-1.411,0.513,1.406,7.008,9.415,1.354,0.004,0.934,-0.380,0.458,2.167,-0.549,53.333,324432.000,1.000
0.942,-1.145,3.195,8.342,9.887,13.402,19.851,6.786,0.004,0.935,-0.379,0.427,2.136,-0.610,53.333,324433.000,1.000
-0.063,6.213,6.194,5.030,9.436,13.832,16.674,6.869,0.007,0.933,-0.380,0.519,2.106,-0.549,53.333,324434.000,1.000
-7.226,9.640,2.967,-6.408,0.870,6.369,3.943,0.272,0.005,0.934,-0.380,0.580,2.167,-0.580,53.333,324435.000,1.000
-10.605,1.533,-2.515,-11.603,-4.560,-1.331,-2.717,-5.377,0.006,0.934,-0.380,0.732,2.167,-0.610,53.333,324436.000,1.000
-4.869,-9.624,-2.598,-4.128,0.134,-1.564,3.356,-3.332,0.007,0.934,-0.381,0.885,2.167,-0.519,53.333,324437.000,1.000
3.486,-9.936,3.775,5.903,8.793,3.785,11.735,3.437,0.010,0.934,-0.378,0.885,2.106,-0.488,53.333,324438.000,1.000
5.058,1.256,9.583,5.819,11.041,6.523,10.079,6.541,0.009,0.934,-0.380,0.977,2.228,-0.519,53.333,324439.000,1.000
0.476,10.528,9.309,-2.204,6.703,3.799,1.557,3.733,0.008,0.934,-0.382,1.007,2.289,-0.458,53.333,324440.000,1.000
-0.527,8.564,6.428,-4.285,5.787,1.957,0.315,1.795,0.009,0.934,-0.379,1.038,2.197,-0.366,53.333,324441.000,1.000
7.220,2.333,8.397,5.744,14.026,7.185,11.263,6.732,0.007,0.934,-0.379,1.068,2.289,-0.366,53.333,324442.000,1.000
16.781,4.647,16.034,17.529,24.169,16.119,22.388,14.997,0.006,0.935,-0.379,1.160,2.319,-0.305,53.333,324443.000,1.000
18.211,15.812,21.988,18.205,25.335,19.719,20.570,17.988,0.006,0.935,-0.381,1.221,2.441,-0.366,53.333,324444.000,1.000
11.533,22.602,20.205,9.559,17.366,14.968,8.932,13.369,0.007,0.934,-0.377,1.251,2.411,-0.244,53.333,324445.000,1.000
5.744,15.836,13.321,4.636,10.331,8.220,1.812,7.546,0.007,0.935,-0.377,1.404,2.411,-0.275,53.333,324446.000,1.000
5.804,2.658,8.299,9.008,10.252,5.972,4.719,6.326,0.006,0.933,-0.374,1.495,2.380,-0.275,53.333,324447.000,1.000
5.962,-3.167,6.766,12.961,11.022,6.048,7.098,6.899,0.008,0.932,-0.375,1.434,2.350,-0.305,53.333,324448.000,1.000
-1.423,0.404,3.478,5.446,3.622,1.313,-2.235,2.213,0.010,0.931,-0.378,1.404,2.472,-0.397,53.333,324449.000,1.000
-13.825,2.045,-4.994,-9.438,-10.114,-9.228,-18.366,-8.229,0.010,0.931,-0.380,1.434,2.594,-0.275,53.333,324450.000,1.000
-20.303,-5.841,-13.747,-16.511,-18.476,-17.489,-25.584,-16.249,0.010,0.933,-0.381,1.587,2.686,-0.336,53.333,324451.000,1.000
-15.482,-15.605,-15.046,-9.335,-14.960,-16.298,-18.113,-15.215,0.011,0.933,-0.379,1.678,2.838,-0.305,53.333,324452.000,1.000
-6.940,-14.823,-8.793,1.053,-7.080,-9.016,-8.024,-8.982,0.011,0.934,-0.380,1.709,2.869,-0.397,53.333,324453.000,1.000
-5.482,-4.054,-3.288,0.808,-6.486,-5.344,-9.084,-6.955,0.010,0.933,-0.379,1.709,2.869,-0.275,53.333,324454.000,1.000
-11.224,3.091,-4.729,-8.480,-13.613,-8.736,-18.424,-11.707,0.011,0.933,-0.380,1.862,2.869,-0.275,53.333,324455.000,1.000
-14.396,-2.095,-9.633,-12.840,-17.841,-12.573,-21.191,-16.047,0.011,0.932,-0.379,1.892,3.021,-0.366,53.333,324456.000,1.000
-9.165,-11.663,-10.007,-5.507,-12.399,-9.795,-11.247,-13.054,0.011,0.932,-0.381,1.984,3.082,-0.336,53.333,324457.000,1.000
-0.931,-11.267,-3.666,4.517,-2.956,-2.133,1.147,-4.793,0.011,0.932,-0.384,2.228,3.143,-0.397,53.333,324458.000,1.000
2.117,0.933,3.711,5.936,1.139,3.104,4.411,1.487,0.011,0.931,-0.383,2.228,3.204,-0.397,53.333,324459.000,1.000
0.276,11.690,6.381,0.817,-0.368,3.076,1.350,3.198,0.012,0.933,-0.382,2.167,3.235,-0.458,53.333,324460.000,1.000
0.977,10.131,5.520,0.847,0.605,2.506,3.916,4.782,0.013,0.931,-0.379,2.319,3.235,-0.488,53.333,324461.000,1.000
7.336,1.784,6.396,9.979,7.912,6.130,15.040,10.000,0.011,0.932,-0.381,2.441,3.296,-0.519,53.333,324462.000,1.000
12.770,0.016,9.964,17.792,14.547,11.216,23.116,15.242,0.009,0.932,-0.382,2.533,3.326,-0.732,53.333,324463.000,1.000
9.681,7.181,11.072,13.331,11.747,10.944,17.434,13.803,0.007,0.933,-0.380,2.533,3.418,-0.824,53.333,324464.000,1.000
0.656,11.980,6.244,0.766,1.745,4.420,3.725,5.740,0.008,0.933,-0.380,2.594,3.479,-0.885,53.333,324465.000,1.000
-3.724,6.277,-0.104,-5.104,-3.834,-0.872,-2.075,-0.717,0.008,0.933,-0.378,2.594,3.418,-0.885,53.333,324466.000,1.000
1.689,-2.655,-0.473,1.904,1.381,1.657,5.773,0.934,0.006,0.936,-0.381,2.625,3.448,-0.946,53.333,324467.000,1.000
10.056,-1.833,5.977,11.473,10.474,9.056,15.722,7.323,0.007,0.939,-0.380,2.625,3.418,-0.946,53.333,324468.000,1.000
11.947,9.294,12.225,11.099,12.782,12.733,14.838,9.914,0.003,0.938,-0.380,2.655,3.326,-1.068,53.333,324469.000,1.000
7.890,17.604,12.586,2.966,8.002,9.748,5.914,6.218,0.004,0.939,-0.381,2.563,3.235,-1.190,53.333,324470.000,1.000
6.995,13.880,9.878,0.312,5.730,6.194,2.623,2.432,0.005,0.938,-0.382,2.563,3.235,-1.343,53.333,324471.000,1.000
13.862,5.175,10.976,8.666,11.526,8.353,9.910,4.313,0.004,0.939,-0.381,2.502,3.326,-1.251,53.333,324472.000,1.000
21.791,4.800,16.872,17.892,18.852,13.822,16.860,8.988,0.004,0.939,-0.380,2.441,3.174,-1.190,53.333,324473.000,1.000
21.371,13.478,20.679,15.762,17.734,14.575,11.618,8.739,0.005,0.939,-0.382,2.319,3.082,-1.282,53.333,324474.000,1.000
12.980,18.067,16.702,4.604,8.435,7.987,-2.053,1.734,0.004,0.939,-0.382,2.441,3.082,-1.282,53.333,324475.000,1.000
6.551,10.189,8.641,-1.456,1.687,1.065,-9.038,-4.725,0.004,0.938,-0.379,2.319,3.082,-1.282,53.333,324476.000,1.000
8.606,-1.285,5.235,4.722,4.732,1.632,-2.591,-3.411,0.003,0.937,-0.382,2.197,3.021,-1.221,53.333,324477.000,1.000
14.025,-1.675,8.921,13.970,11.969,8.172,7.164,3.400,0.004,0.939,-0.379,2.258,3.052,-1.251,53.333,324478.000,1.000
13.859,9.745,13.093,13.819,13.093,12.286,7.624,7.318,0.003,0.934,-0.382,2.167,3.052,-1.190,53.333,324479.000,1.000
7.939,18.615,11.381,5.562,7.211,10.079,0.841,5.156,0.002,0.935,-0.380,2.228,2.991,-1.129,53.333,324480.000,1.000
4.581,14.416,5.901,1.672,3.322,6.646,-0.348,2.449,0.002,0.936,-0.385,2.258,2.930,-0.977,53.333,324481.000,1.000
8.205,3.873,3.481,7.600,6.945,7.909,8.679,4.802,0.004,0.938,-0.383,2.045,2.869,-0.946,53.333,324482.000,1.000
12.589,0.982,5.677,13.739,11.951,11.744,17.112,9.560,0.004,0.937,-0.381,1.984,2.808,-0.977,53.333,324483.000,1.000
9.262,7.647,6.572,8.774,9.055,10.878,13.441,9.432,0.003,0.938,-0.381,1.923,2.838,-0.916,53.333,324484.000,1.000
-0.534,11.576,1.318,-4.155,-0.936,3.404,1.633,2.904,0.003,0.937,-0.382,1.801,2.716,-0.854,53.333,324485.000,1.000
-6.814,4.143,-6.444,-10.951,-7.596,-3.829,-3.801,-3.094,0.002,0.935,-0.384,1.740,2.716,-0.916,53.333,324486.000,1.000
-3.700,-6.854,-8.791,-5.148,-4.658,-3.919,2.736,-2.120,0.001,0.936,-0.383,1.617,2.655,-0.885,53.333,324487.000,1.000
3.206,-7.522,-3.876,3.796,1.747,1.061,10.693,3.389,0.002,0.936,-0.380,1.495,2.625,-0.824,53.333,324488.000,1.000
4.881,2.898,1.690,3.766,1.698,3.077,8.243,5.766,0.004,0.935,-0.384,1.465,2.563,-0.763,53.333,324489.000,1.000
1.224,10.709,1.765,-3.487,-4.868,-0.821,-1.241,2.766,0.005,0.934,-0.383,1.373,2.502,-0.732,53.333,324490.000,1.000
0.681,6.360,-1.286,-5.245,-8.167,-4.573,-3.804,0.554,0.004,0.933,-0.384,1.221,2.472,-0.854,53.333,324491.000,1.000
7.686,-2.780,-0.598,3.824,-2.408,-1.858,5.533,4.697,0.004,0.935,-0.382,1.129,2.472,-0.702,53.333,324492.000,1.000
15.487,-3.147,4.858,13.380,5.641,4.575,15.216,11.620,0.003,0.938,-0.383,1.068,2.533,-0.763,53.333,324493.000,1.000
14.838,5.991,8.377,11.101,5.564,6.292,12.487,12.782,0.005,0.938,-0.385,0.946,2.502,-0.793,53.333,324494.000,1.000
6.853,11.760,4.964,-0.256,-2.326,0.893,0.797,6.228,0.004,0.938,-0.382,0.916,2.563,-0.671,53.333,324495.000,1.000
2.018,5.916,-1.195,-6.168,-7.140,-4.295,-4.800,-0.448,0.004,0.936,-0.380,0.854,2.441,-0.671,53.333,324496.000,1.000
6.285,-3.515,-2.014,0.127,-2.228,-2.001,1.800,-0.161,0.004,0.937,-0.384,0.824,2.350,-0.641,53.333,324497.000,1.000
13.333,-3.217,3.637,8.738,5.830,5.139,9.608,4.382,0.005,0.935,-0.382,0.732,2.441,-0.732,53.333,324498.000,1.000
13.568,7.075,8.468,7.086,6.474,8.283,6.033,4.875,0.004,0.936,-0.382,0.610,2.441,-0.641,53.333,324499.000,1.000
7.116,14.020,6.545,-2.764,-0.362,4.319,-5.660,-0.986,0.005,0.935,-0.382,0.519,2.411,-0.732,53.333,324500.000,1.000
3.100,8.703,1.063,-7.165,-4.451,-0.324,-10.943,-6.397,0.005,0.934,-0.381,0.427,2.441,-0.732,53.333,324501.000,1.000
6.763,-1.242,-0.147,0.289,0.541,1.225,-3.942,-4.706,0.005,0.936,-0.383,0.397,2.563,-0.854,53.333,324502.000,1.000
12.372,-2.116,4.831,10.190,8.511,6.941,4.866,1.772,0.008,0.938,-0.384,0.458,2.472,-0.793,53.333,324503.000,1.000
11.411,6.970,9.641,10.516,9.533,8.943,3.470,5.235,0.008,0.939,-0.383,0.458,2.563,-0.885,53.333,324504.000,1.000
4.506,12.774,8.474,3.103,3.497,4.450,-5.139,3.058,0.008,0.940,-0.384,0.244,2.594,-0.946,53.333,324505.000,1.000
0.582,6.118,3.869,0.652,-0.004,-0.485,-7.527,0.908,0.008,0.940,-0.380,0.275,2.625,-0.854,53.333,324506.000,1.000
4.566,-5.224,2.990,8.725,4.927,0.663,1.239,4.369,0.009,0.941,-0.383,0.122,2.686,-1.007,53.333,324507.000,1.000
10.647,-6.806,7.665,17.790,12.397,6.042,10.655,10.891,0.007,0.939,-0.383,0.061,2.747,-1.007,53.333,324508.000,1.000
10.336,2.892,11.839,16.343,12.946,8.123,9.310,13.191,0.008,0.939,-0.382,-0.061,2.747,-0.977,53.333,324509.000,1.000
4.243,10.553,9.990,6.987,6.690,4.188,0.745,9.459,0.006,0.938,-0.382,-0.092,2.869,-1.007,53.333,324510.000,1.000
1.208,6.322,4.739,3.023,3.046,0.000,-1.471,6.007,0.008,0.937,-0.381,-0.092,2.838,-0.977,53.333,324511.000,1.000
5.720,-3.190,2.850,9.885,7.144,1.320,6.993,8.251,0.009,0.936,-0.382,-0.092,2.960,-1.007,53.333,324512.000,1.000
11.267,-4.789,5.443,17.289,12.095,5.330,14.545,12.742,0.009,0.936,-0.387,0.000,3.052,-1.068,53.333,324513.000,1.000
9.450,3.028,6.667,13.516,8.583,4.583,9.601,11.935,0.008,0.934,-0.386,0.031,3.052,-1.038,53.333,324514.000,1.000
2.152,8.593,2.526,2.024,-1.604,-2.128,-2.947,5.064,0.007,0.933,-0.382,0.092,3.021,-1.007,53.333,324515.000,1.000
-0.628,3.716,-2.970,-2.943,-7.390,-7.636,-8.042,-0.344,0.006,0.931,-0.384,0.000,3.082,-1.038,53.333,324516.000,1.000
5.657,-4.736,-3.001,4.280,-3.309,-6.138,-0.996,1.481,0.004,0.933,-0.386,0.122,3.021,-1.129,53.333,324517.000,1.000
13.641,-4.566,2.402,12.886,2.777,-1.517,5.886,6.543,0.004,0.934,-0.385,0.275,3.174,-1.007,53.333,324518.000,1.000
13.572,4.149,5.562,9.974,-0.152,-2.635,-0.184,6.079,0.004,0.936,-0.381,0.366,3.143,-1.099,53.333,324519.000,1.000
6.230,8.584,1.022,-2.115,-11.540,-11.367,-15.012,-1.753,0.004,0.937,-0.381,0.366,3.235,-1.038,53.333,324520.000,1.000
1.655,0.810,-7.174,-9.194,-19.946,-19.587,-22.829,-9.363,0.003,0.936,-0.382,0.366,3.204,-1.007,53.333,324521.000,1.000
5.301,-10.919,-10.876,-4.714,-18.328,-19.534,-17.341,-9.942,0.003,0.934,-0.381,0.397,3.082,-1.007,53.333,324522.000,1.000
10.814,-12.922,-8.423,1.696,-12.840,-13.557,-9.507,-6.292,0.004,0.933,-0.380,0.366,3.143,-0.946,53.333,324523.000,1.000
9.358,-4.252,-6.010,-1.649,-13.345,-10.142,-11.613,-6.233,0.003,0.932,-0.379,0.427,3.052,-0.916,53.333,324524.000,1.000
2.237,2.480,-8.464,-11.732,-19.295,-12.109,-20.088,-11.335,0.005,0.930,-0.379,0.458,2.991,-0.885,53.333,324525.000,1.000
-0.800,-1.423,-12.410,-14.839,-20.625,-13.259,-20.794,-14.674,0.003,0.930,-0.381,0.488,3.052,-0.885,53.333,324526.000,1.000
4.917,-8.931,-11.132,-5.682,-12.141,-7.693,-9.161,-10.552,0.003,0.935,-0.382,0.427,3.021,-0.854,53.333,324527.000,1.000
12.231,-7.444,-4.357,4.818,-1.416,1.282,2.770,-2.758,0.005,0.935,-0.384,0.671,3.021,-0.732,53.333,324528.000,1.000
11.550,3.195,0.700,3.989,0.922,5.119,2.320,0.157,0.007,0.934,-0.382,0.671,3.021,-0.702,53.333,324529.000,1.000
3.817,10.128,-1.080,-5.429,-4.462,1.696,-6.574,-3.567,0.007,0.931,-0.383,0.671,3.174,-0.641,53.333,324530.000,1.000
-0.756,5.256,-5.683,-9.114,-6.480,-1.541,-8.714,-6.509,0.007,0.930,-0.383,0.824,3.052,-0.519,53.333,324531.000,1.000
3.476,-3.286,-5.283,-0.805,1.297,2.458,1.613,-2.256,0.006,0.930,-0.384,0.824,3.052,-0.610,53.333,324532.000,1.000
10.393,-1.864,1.435,9.431,12.156,11.025,13.190,6.019,0.005,0.928,-0.384,0.946,3.204,-0.519,53.333,324533.000,1.000
11.004,10.059,7.746,9.341,15.619,15.586,13.574,10.042,0.007,0.929,-0.386,1.068,3.235,-0.458,53.333,324534.000,1.000
5.678,18.840,7.893,1.146,11.377,13.045,5.870,7.446,0.008,0.930,-0.381,1.221,3.235,-0.519,53.333,324535.000,1.000
3.141,14.899,4.516,-1.980,8.924,9.348,3.763,4.428,0.007,0.932,-0.383,1.190,3.357,-0.702,53.333,324536.000,1.000
7.929,5.392,4.489,5.500,13.783,10.677,12.018,6.690,0.006,0.931,-0.383,1.251,3.357,-0.732,53.333,324537.000,1.000
13.802,4.018,9.064,13.615,19.607,14.648,19.598,11.314,0.006,0.931,-0.384,1.221,3.296,-0.671,53.333,324538.000,1.000
12.395,12.217,12.133,10.725,17.175,13.807,15.051,10.941,0.007,0.931,-0.382,1.129,3.296,-0.641,53.333,324539.000,1.000
4.966,17.546,8.856,-0.276,7.599,6.349,2.678,4.264,0.005,0.932,-0.384,1.221,3.204,-0.732,53.333,324540.000,1.000
0.864,11.276,2.590,-5.824,1.279,-0.914,-3.028,-1.794,0.005,0.934,-0.385,1.221,3.204,-0.763,53.333,324541.000,1.000
4.803,0.831,0.539,-0.236,3.966,-1.468,2.951,-1.285,0.005,0.935,-0.381,1.251,3.204,-0.885,53.333,324542.000,1.000
10.306,-0.378,3.924,6.511,8.959,2.193,9.395,2.695,0.005,0.935,-0.382,1.251,3.296,-0.946,53.333,324543.000,1.000
8.501,8.355,6.245,2.565,6.285,2.090,4.308,2.237,0.005,0.935,-0.381,1.221,3.174,-1.007,53.333,324544.000,1.000
0.430,13.920,2.247,-9.274,-3.578,-4.165,-8.499,-4.438,0.005,0.937,-0.381,1.221,3.235,-1.129,53.333,324545.000,1.000
-4.321,7.305,-4.918,-15.267,-10.458,-10.151,-14.680,-10.515,0.002,0.937,-0.384,1.160,3.204,-1.221,53.333,324546.000,1.000
-1.137,-4.373,-8.375,-9.828,-8.825,-9.895,-9.360,-10.218,0.002,0.937,-0.385,1.099,3.265,-1.282,53.333,324547.000,1.000
3.062,-7.925,-7.149,-3.271,-5.538,-6.391,-3.847,-6.887,0.002,0.935,-0.383,1.007,3.265,-1.312,53.333,324548.000,1.000
-0.271,-1.928,-7.035,-7.152,-9.883,-7.175,-9.401,-7.963,0.004,0.933,-0.382,0.977,3.296,-1.343,53.333,324549.000,1.000
-9.036,2.006,-11.885,-17.846,-19.965,-13.312,-20.861,-14.133,0.005,0.932,-0.385,0.977,3.265,-1.343,53.333,324550.000,1.000
-13.095,-4.126,-17.693,-21.319,-24.647,-17.387,-23.237,-17.983,0.004,0.935,-0.384,0.946,3.204,-1.312,53.333,324551.000,1.000
-7.940,-13.183,-17.669,-12.355,-18.406,-13.321,-12.184,-13.943,0.004,0.936,-0.383,1.007,3.235,-1.343,53.333,324552.000,1.000
-0.729,-12.700,-11.549,-1.782,-8.869,-4.740,-0.257,-5.949,0.004,0.935,-0.385,1.038,3.204,-1.343,53.333,324553.000,1.000
-0.558,-2.568,-6.319,-1.793,-6.740,-0.496,-0.322,-2.387,0.003,0.936,-0.386,0.977,3.204,-1.373,53.333,324554.000,1.000
-6.010,4.333,-6.885,-9.303,-11.641,-3.076,-8.561,-4.981,0.002,0.936,-0.384,0.916,3.174,-1.373,53.333,324555.000,1.000
-6.847,-0.118,-9.214,-10.072,-12.975,-5.444,-10.029,-6.588,0.004,0.934,-0.384,0.793,3.143,-1.434,53.333,324556.000,1.000
2.190,-7.756,-5.674,1.769,-4.643,-0.734,0.851,-1.059,0.003,0.935,-0.383,0.885,3.265,-1.495,53.333,324557.000,1.000
13.816,-5.325,4.179,15.188,6.299,8.159,12.623,7.961,0.003,0.934,-0.383,0.946,3.265,-1.434,53.333,324558.000,1.000
17.288,6.883,12.202,16.545,8.966,12.305,12.457,11.506,0.002,0.934,-0.384,0.977,3.204,-1.343,53.333,324559.000,1.000
12.102,14.972,12.008,7.470,3.320,8.845,3.683,7.234,0.003,0.935,-0.382,0.885,3.143,-1.404,53.333,324560.000,1.000
7.654,10.004,6.883,1.853,-0.149,4.623,0.863,2.294,0.001,0.935,-0.383,0.793,3.082,-1.221,53.333,324561.000,1.000
9.643,-0.214,4.653,6.394,4.819,6.433,9.354,3.276,0.001,0.936,-0.382,0.916,3.052,-1.282,53.333,324562.000,1.000
12.394,-2.027,6.968,11.846,11.715,11.666,17.892,7.388,-0.001,0.937,-0.381,0.916,2.991,-1.160,53.333,324563.000,1.000
7.536,5.551,7.684,6.767,10.583,12.153,14.328,6.862,0.001,0.936,-0.380,0.793,2.991,-1.160,53.333,324564.000,1.000
-3.323,10.109,2.251,-5.670,2.149,5.785,2.621,0.239,0.002,0.934,-0.383,0.763,3.052,-1.099,53.333,324565.000,1.000
-9.827,3.719,-5.094,-11.345,-2.808,-0.200,-2.392,-5.171,0.002,0.934,-0.384,0.671,2.899,-1.038,53.333,324566.000,1.000
-6.549,-5.547,-6.503,-4.418,1.905,1.088,4.662,-3.175,0.002,0.936,-0.382,0.702,2.930,-1.068,53.333,324567.000,1.000
-0.269,-4.652,-1.102,4.442,9.317,6.722,12.182,2.614,0.003,0.936,-0.384,0.671,2.991,-0.977,53.333,324568.000,1.000
-0.712,6.092,3.634,2.412,8.679,7.825,7.390,3.414,0.002,0.935,-0.383,0.580,2.991,-0.885,53.333,324569.000,1.000
-7.321,13.102,1.906,-8.016,0.171,1.716,-6.043,-2.810,0.002,0.937,-0.382,0.610,2.960,-0.916,53.333,324570.000,1.000
-10.365,7.943,-2.769,-12.575,-5.378,-4.421,-12.863,-8.561,0.003,0.937,-0.382,0.549,3.021,-0.854,53.333,324571.000,1.000
-4.959,-1.499,-2.995,-5.123,-1.614,-3.612,-7.156,-7.212,0.002,0.936,-0.381,0.488,2.960,-0.793,53.333,324572.000,1.000
1.735,-2.208,1.827,3.727,4.486,1.221,-0.255,-2.093,0.002,0.935,-0.381,0.488,3.082,-0.793,53.333,324573.000,1.000
0.385,6.108,4.696,1.365,2.541,1.603,-4.542,-1.543,0.001,0.933,-0.385,0.488,3.052,-0.641,53.333,324574.000,1.000
-7.490,10.891,0.929,-9.340,-6.535,-4.418,-15.887,-7.087,0.001,0.933,-0.381,0.427,3.082,-0.641,53.333,324575.000,1.000
-11.504,4.278,-5.160,-14.083,-11.606,-9.381,-19.249,-11.269,0.003,0.933,-0.385,0.397,3.113,-0.641,53.333,324576.000,1.000
-6.406,-5.707,-5.847,-6.732,-6.444,-6.498,-9.464,-7.890,0.004,0.935,-0.381,0.458,3.052,-0.610,53.333,324577.000,1.000
1.163,-5.807,-0.164,2.668,2.039,1.224,1.655,-0.399,0.002,0.937,-0.381,0.427,3.021,-0.580,53.333,324578.000,1.000
2.155,4.374,5.078,2.192,3.520,5.135,1.466,2.900,0.002,0.938,-0.381,0.458,3.082,-0.366,53.333,324579.000,1.000
-2.284,11.775,4.747,-5.286,-1.591,2.581,-6.445,0.165,0.001,0.936,-0.381,0.427,2.960,-0.519,53.333,324580.000,1.000
-2.412,7.798,2.412,-6.032,-2.931,0.201,-7.579,-1.619,0.004,0.934,-0.381,0.397,2.899,-0.488,53.333,324581.000,1.000
6.368,0.003,5.144,5.317,5.216,4.427,3.222,3.516,0.004,0.932,-0.383,0.366,2.991,-0.488,53.333,324582.000,1.000
16.422,1.240,13.116,17.681,15.527,12.218,14.426,11.939,0.005,0.932,-0.383,0.336,3.082,-0.610,53.333,324583.000,1.000
17.463,11.365,18.553,18.025,17.207,14.920,13.557,15.070,0.005,0.931,-0.383,0.244,3.113,-0.519,53.333,324584.000,1.000
9.713,16.804,15.564,8.514,10.284,9.844,4.197,10.803,0.004,0.935,-0.381,0.244,3.113,-0.549,53.333,324585.000,1.000
2.539,8.496,7.327,2.611,4.781,3.421,0.518,5.767,0.003,0.936,-0.382,0.244,3.143,-0.702,53.333,324586.000,1.000
1.121,-5.993,1.295,6.005,6.408,2.047,7.312,5.762,0.003,0.936,-0.379,0.183,3.021,-0.580,53.333,324587.000,1.000
0.075,-12.431,-0.469,9.182,8.986,3.661,13.539,8.016,0.005,0.937,-0.380,0.214,2.991,-0.549,53.333,324588.000,1.000
-7.536,-8.415,-2.792,1.670,3.871,1.431,8.133,5.756,0.006,0.938,-0.380,0.153,2.899,-0.580,53.333,324589.000,1.000
-18.708,-5.103,-9.021,-12.063,-6.861,-5.744,-3.949,-1.437,0.004,0.938,-0.378,0.122,3.021,-0.580,53.333,324590.000,1.000
-22.789,-10.109,-14.670,-17.247,-11.900,-10.603,-7.692,-5.938,0.004,0.938,-0.383,-0.031,3.082,-0.549,53.333,324591.000,1.000
-15.118,-16.028,-12.643,-8.257,-5.520,-7.002,1.666,-2.008,0.005,0.937,-0.381,-0.031,3.021,-0.610,53.333,324592.000,1.000
-3.821,-11.178,-3.488,3.344,4.117,1.041,11.530,5.783,0.003,0.938,-0.380,0.031,2.960,-0.610,53.333,324593.000,1.000
-0.090,2.643,3.858,3.536,4.985,3.653,8.236,7.624,0.002,0.937,-0.378,-0.061,3.113,-0.641,53.333,324594.000,1.000
-4.448,10.909,2.738,-6.211,-3.495,-2.368,-5.010,0.839,0.003,0.937,-0.377,0.000,3.082,-0.610,53.333,324595.000,1.000
-7.326,5.229,-3.287,-11.957,-10.474,-9.697,-12.932,-7.014,0.003,0.937,-0.375,0.000,2.991,-0.488,53.333,324596.000,1.000
-2.717,-5.304,-5.720,-6.698,-8.578,-10.331,-8.821,-8.230,0.002,0.938,-0.375,-0.153,2.899,-0.549,53.333,324597.000,1.000
3.962,-5.967,-2.261,0.709,-3.101,-5.621,-2.586,-4.405,0.001,0.937,-0.376,-0.183,2.838,-0.610,53.333,324598.000,1.000
4.118,4.255,0.986,-1.170,-3.474,-3.306,-5.781,-2.922,0.002,0.936,-0.378,-0.153,2.930,-0.549,53.333,324599.000,1.000
-1.652,11.897,-1.331,-9.844,-9.483,-6.237,-14.955,-6.016,0.002,0.934,-0.375,-0.244,2.869,-0.610,53.333,324600.000,1.000
-4.519,7.521,-6.322,-12.358,-11.586,-8.619,-16.568,-7.902,0.002,0.935,-0.379,-0.214,2.869,-0.610,53.333,324601.000,1.000
-0.208,-1.862,-7.235,-3.813,-4.722,-4.728,-6.444,-3.678,0.001,0.934,-0.378,-0.214,2.777,-0.549,53.333,324602.000,1.000
4.771,-2.958,-3.014,5.327,4.115,2.553,3.781,3.072,0.001,0.937,-0.379,-0.275,2.747,-0.488,53.333,324603.000,1.000
2.339,5.419,0.409,3.508,5.272,5.453,2.377,4.837,0.002,0.938,-0.378,-0.244,2.625,-0.458,53.333,324604.000,1.000
-5.395,11.031,-1.289,-5.847,-0.299,2.042,-6.380,0.530,0.001,0.938,-0.378,-0.305,2.777,-0.427,53.333,324605.000,1.000
-8.160,5.733,-4.281,-8.607,-2.178,-0.850,-7.910,-2.647,0.001,0.939,-0.376,-0.275,2.838,-0.458,53.333,324606.000,1.000
-1.026,-2.760,-1.551,1.006,5.286,3.103,2.748,1.277,0.002,0.939,-0.378,-0.366,2.777,-0.427,53.333,324607.000,1.000
8.637,-1.654,6.967,12.313,14.855,10.665,13.850,8.756,0.003,0.941,-0.376,-0.336,2.777,-0.397,53.333,324608.000,1.000
10.454,8.662,13.269,12.322,15.798,12.950,12.678,11.234,0.002,0.939,-0.378,-0.305,2.716,-0.366,53.333,324609.000,1.000
4.251,14.463,11.237,2.947,8.193,7.275,2.724,6.565,0.002,0.938,-0.379,-0.427,2.655,-0.244,53.333,324610.000,1.000
-0.750,6.964,4.178,-2.393,2.395,0.600,-1.448,1.616,0.002,0.937,-0.377,-0.458,2.625,-0.214,53.333,324611.000,1.000
0.783,-5.880,-0.069,2.244,4.570,-0.060,5.568,2.604,0.004,0.937,-0.379,-0.427,2.563,-0.305,53.333,324612.000,1.000
3.300,-10.039,0.574,7.385,8.569,3.199,12.899,6.747,0.002,0.935,-0.380,-0.427,2.686,-0.366,53.333,324613.000,1.000
-1.072,-4.146,0.511,1.931,5.004,2.675,8.856,6.455,0.004,0.937,-0.379,-0.275,2.655,-0.336,53.333,324614.000,1.000
-10.747,-0.681,-4.880,-10.785,-5.299,-3.896,-2.675,0.045,0.004,0.939,-0.377,-0.214,2.533,-0.275,53.333,324615.000,1.000
-16.107,-7.991,-12.076,-16.916,-11.996,-9.931,-7.452,-5.732,0.005,0.940,-0.377,-0.244,2.502,-0.214,53.333,324616.000,1.000
-12.371,-18.257,-13.886,-10.839,-9.257,-9.059,-0.593,-4.962,0.006,0.939,-0.374,-0.305,2.594,-0.153,53.333,324617.000,1.000
-6.025,-18.067,-9.303,-2.756,-3.631,-3.930,6.667,-0.634,0.004,0.937,-0.377,-0.336,2.563,-0.214,53.333,324618.000,1.000
-5.861,-6.921,-4.969,-4.602,-4.823,-2.457,2.629,-0.308,0.004,0.936,-0.377,-0.336,2.625,-0.214,53.333,324619.000,1.000
-11.160,1.658,-6.400,-13.938,-12.430,-7.065,-8.811,-5.725,0.007,0.936,-0.375,-0.366,2.594,-0.122,53.333,324620.000,1.000
-13.125,-1.893,-10.883,-17.839,-16.846,-11.688,-13.780,-10.630,0.005,0.936,-0.376,-0.366,2.686,-0.092,53.333,324621.000,1.000
-7.363,-10.571,-11.531,-11.073,-12.763,-10.330,-7.632,-9.536,0.004,0.937,-0.374,-0.366,2.747,-0.153,53.333,324622.000,1.000
-0.304,-10.992,-6.999,-3.495,-6.664,-5.428,-1.259,-5.375,0.005,0.936,-0.372,-0.305,2.716,-0.153,53.333,324623.000,1.000
-0.591,-2.176,-3.392,-6.385,-7.850,-4.453,-5.815,-5.423,0.005,0.936,-0.375,-0.336,2.716,-0.153,53.333,324624.000,1.000
-6.966,3.421,-5.441,-16.335,-15.113,-9.136,-16.725,-10.813,0.007,0.935,-0.375,-0.183,2.655,-0.092,53.333,324625.000,1.000
-9.448,-2.017,-9.231,-19.091,-17.553,-12.295,-19.157,-14.184,0.003,0.934,-0.374,-0.183,2.655,-0.244,53.333,324626.000,1.000
-2.806,-10.160,-7.198,-8.773,-9.127,-7.272,-8.068,-9.395,0.006,0.936,-0.375,-0.153,2.686,-0.336,53.333,324627.000,1.000
5.995,-7.937,1.162,3.741,2.770,2.669,4.535,-0.242,0.005,0.937,-0.375,-0.092,2.747,-0.397,53.333,324628.000,1.000
6.864,4.020,7.909,5.098,6.765,8.180,5.429,4.075,0.005,0.936,-0.374,-0.183,2.655,-0.305,53.333,324629.000,1.000
-0.130,11.606,6.801,-2.993,2.255,5.899,-2.434,0.806,0.005,0.937,-0.372,-0.214,2.777,-0.275,53.333,324630.000,1.000
-5.302,6.133,1.273,-6.836,-0.541,2.426,-4.680,-3.193,0.006,0.937,-0.375,-0.092,2.838,-0.366,53.333,324631.000,1.000
-2.662,-3.865,-0.393,0.166,5.041,4.972,4.428,-1.063,0.006,0.937,-0.371,0.000,2.960,-0.305,53.333,324632.000,1.000
2.334,-4.304,3.897,8.723,13.144,11.553,14.220,4.841,0.006,0.936,-0.373,-0.122,2.960,-0.244,53.333,324633.000,1.000
1.035,5.276,7.812,7.060,14.026,14.120,12.718,6.669,0.007,0.937,-0.377,-0.092,2.991,-0.305,53.333,324634.000,1.000
-5.760,11.447,5.982,-2.252,8.090,10.105,3.552,2.394,0.006,0.937,-0.374,-0.061,3.021,-0.275,53.333,324635.000,1.000
-8.648,5.574,1.598,-5.678,5.429,6.039,0.973,-1.296,0.004,0.936,-0.375,0.031,2.838,-0.214,53.333,324636.000,1.000
-2.827,-4.429,1.689,2.393,11.503,8.229,9.855,1.501,0.006,0.937,-0.372,0.061,2.930,-0.214,53.333,324637.000,1.000
4.896,-5.218,6.982,11.636,19.114,13.670,18.646,7.458,0.005,0.938,-0.376,0.000,2.930,-0.183,53.333,324638.000,1.000
5.112,3.374,10.510,9.835,17.915,13.849,15.073,8.417,0.007,0.937,-0.377,0.000,2.960,-0.092,53.333,324639.000,1.000
-1.453,8.046,7.078,-0.312,8.515,6.356,3.003,2.685,0.007,0.935,-0.374,0.122,3.052,-0.061,53.333,324640.000,1.000
-5.072,0.432,0.516,-4.856,1.749,-1.694,-2.801,-2.455,0.006,0.937,-0.375,0.122,3.052,0.000,53.333,324641.000,1.000
-0.631,-11.391,-1.569,2.057,3.855,-3.352,2.951,-0.795,0.006,0.937,-0.374,0.183,3.082,-0.031,53.333,324642.000,1.000
5.223,-14.036,1.741,10.034,8.083,-1.141,8.883,4.191,0.005,0.937,-0.375,0.244,3.082,-0.031,53.333,324643.000,1.000
3.410,-7.017,3.574,6.940,4.421,-3.020,3.043,4.267,0.003,0.937,-0.375,0.122,3.113,0.031,53.333,324644.000,1.000
-4.985,-3.122,-1.143,-4.274,-6.248,-10.896,-10.233,-2.120,0.002,0.938,-0.374,0.092,3.052,0.031,53.333,324645.000,1.000
-10.317,-10.616,-8.724,-9.730,-13.236,-17.691,-16.085,-7.771,0.003,0.940,-0.375,0.031,3.143,0.061,53.333,324646.000,1.000
-7.765,-21.726,-11.827,-3.885,-10.713,-16.924,-9.444,-6.723,0.005,0.942,-0.374,0.031,3.052,0.122,53.333,324647.000,1.000
-3.925,-23.304,-9.529,2.755,-5.680,-11.625,-1.899,-2.497,0.006,0.941,-0.372,0.000,3.174,0.031,53.333,324648.000,1.000
-7.558,-15.021,-8.518,-1.945,-8.341,-10.312,-5.765,-3.307,0.004,0.940,-0.370,0.000,3.143,0.214,53.333,324649.000,1.000
-17.147,-9.820,-13.628,-14.856,-18.011,-15.379,-17.117,-10.638,0.004,0.940,-0.376,-0.122,3.174,0.305,53.333,324650.000,1.000
-22.335,-15.791,-20.669,-21.339,-23.781,-19.676,-20.964,-16.696,0.003,0.941,-0.378,-0.183,3.113,0.275,53.333,324651.000,1.000
-17.546,-24.613,-21.668,-14.718,-19.124,-16.102,-11.534,-14.474,0.005,0.938,-0.375,-0.122,3.052,0.366,53.333,324652.000,1.000
-9.165,-22.622,-15.403,-4.790,-10.349,-7.013,0.239,-6.744,0.004,0.937,-0.375,-0.153,3.082,0.427,53.333,324653.000,1.000
-6.407,-9.316,-8.677,-3.751,-7.331,-0.564,2.228,-1.746,0.005,0.934,-0.378,-0.122,3.113,0.366,53.333,324654.000,1.000
-8.936,1.788,-7.071,-9.529,-9.941,0.329,-2.472,-2.109,0.006,0.936,-0.376,-0.092,3.174,0.427,53.333,324655.000,1.000
-8.448,0.896,-8.118,-9.716,-9.150,0.908,-1.078,-2.473,0.006,0.939,-0.374,-0.031,3.113,0.488,53.333,324656.000,1.000
-1.297,-5.626,-5.665,0.080,-0.661,6.030,9.729,1.681,0.006,0.939,-0.374,-0.061,3.143,0.519,53.333,324657.000,1.000
5.915,-4.766,1.146,9.507,8.391,12.630,18.282,6.956,0.006,0.938,-0.371,-0.153,3.174,0.610,53.333,324658.000,1.000
5.379,4.851,6.542,7.604,8.978,13.659,13.782,6.581,0.006,0.940,-0.372,0.000,3.174,0.610,53.333,324659.000,1.000
-1.023,11.104,6.058,-1.945,2.656,7.938,1.491,0.112,0.006,0.940,-0.373,-0.122,3.296,0.580,53.333,324660.000,1.000
-4.009,5.553,2.857,-5.477,-0.205,2.363,-3.749,-5.171,0.006,0.939,-0.373,-0.183,3.204,0.519,53.333,324661.000,1.000
0.443,-4.477,3.359,2.089,5.539,2.968,2.751,-3.642,0.007,0.938,-0.373,-0.092,3.174,0.549,53.333,324662.000,1.000
5.423,-5.893,8.081,10.247,12.641,6.832,9.442,1.142,0.006,0.937,-0.374,-0.061,3.204,0.458,53.333,324663.000,1.000
3.135,2.680,11.242,7.904,11.880,6.735,5.198,1.885,0.007,0.936,-0.375,-0.031,3.204,0.488,53.333,324664.000,1.000
-3.091,10.170,9.853,-0.280,5.779,2.237,-4.273,-1.490,0.008,0.936,-0.374,-0.061,3.326,0.488,53.333,324665.000,1.000
-2.466,8.992,8.693,0.269,5.740,0.916,-3.851,-1.356,0.009,0.936,-0.376,-0.031,3.326,0.641,53.333,324666.000,1.000
8.470,5.314,13.876,13.764,16.262,7.743,9.807,6.816,0.005,0.935,-0.374,0.031,3.265,0.458,53.333,324667.000,1.000
20.343,9.610,23.849,27.446,28.058,17.364,22.723,17.380,0.009,0.933,-0.374,0.122,3.296,0.305,53.333,324668.000,1.000
22.238,20.516,30.089,27.744,29.452,19.942,21.351,20.887,0.010,0.933,-0.374,0.183,3.174,0.305,53.333,324669.000,1.000
15.004,25.076,27.238,17.533,21.000,13.275,9.824,15.710,0.009,0.934,-0.375,0.305,3.204,0.244,53.333,324670.000,1.000
9.315,16.148,19.735,11.599,14.120,5.440,3.821,9.747,0.010,0.930,-0.373,0.397,3.143,0.244,53.333,324671.000,1.000
11.253,2.925,15.902,16.565,15.676,4.261,9.487,9.854,0.010,0.931,-0.373,0.549,3.296,0.122,53.333,324672.000,1.000
14.875,-0.552,17.278,22.580,19.393,7.642,15.995,13.175,0.009,0.931,-0.374,0.671,3.296,0.031,53.333,324673.000,1.000
11.599,6.523,17.601,17.884,15.637,7.686,11.610,12.031,0.007,0.932,-0.374,0.916,3.326,0.000,53.333,324674.000,1.000
2.770,11.392,12.195,5.576,5.410,2.207,0.425,5.083,0.008,0.931,-0.371,1.007,3.265,-0.183,53.333,324675.000,1.000
-2.268,5.260,4.482,-0.808,-1.086,-2.584,-3.618,-0.934,0.010,0.930,-0.372,1.007,3.235,-0.183,53.333,324676.000,1.000
0.551,-5.124,1.029,3.705,1.113,-1.385,3.379,-0.863,0.010,0.933,-0.371,1.160,3.357,-0.366,53.333,324677.000,1.000
4.149,-7.368,2.277,8.552,4.645,2.307,9.461,1.549,0.010,0.933,-0.375,1.282,3.418,-0.488,53.333,324678.000,1.000
0.039,-0.931,1.834,2.320,-0.056,0.781,3.240,-1.187,0.009,0.933,-0.375,1.282,3.387,-0.549,53.333,324679.000,1.000
-9.581,2.275,-4.401,-11.068,-11.194,-6.887,-9.965,-9.637,0.009,0.932,-0.373,1.343,3.387,-0.610,53.333,324680.000,1.000
-13.986,-4.852,-11.757,-16.995,-17.248,-12.537,-14.499,-15.889,0.008,0.933,-0.370,1.617,3.357,-0.793,53.333,324681.000,1.000
-7.902,-13.798,-12.423,-9.717,-12.090,-9.158,-5.102,-13.764,0.009,0.936,-0.373,1.648,3.387,-0.854,53.333,324682.000,1.000
1.270,-11.857,-6.163,-0.373,-3.379,-0.326,5.954,-7.302,0.008,0.939,-0.371,1.709,3.326,-0.824,53.333,324683.000,1.000
2.896,-0.177,-1.332,-2.274,-2.629,4.134,5.195,-5.752,0.009,0.942,-0.371,1.709,3.357,-0.885,53.333,324684.000,1.000
-3.345,6.872,-4.344,-13.326,-10.230,0.726,-4.370,-11.522,0.010,0.942,-0.370,1.678,3.387,-0.885,53.333,324685.000,1.000
-7.986,0.619,-11.614,-19.371,-15.579,-3.737,-8.129,-17.275,0.009,0.943,-0.367,1.587,3.448,-0.977,53.333,324686.000,1.000
-5.176,-10.334,-14.620,-13.489,-11.702,-1.749,-0.103,-15.864,0.011,0.947,-0.369,1.587,3.510,-1.038,53.333,324687.000,1.000
-0.127,-11.542,-10.818,-4.479,-3.993,5.173,9.566,-9.283,0.012,0.949,-0.368,1.495,3.601,-1.068,53.333,324688.000,1.000
-0.634,-1.582,-5.735,-3.304,-1.450,9.700,9.791,-4.733,0.013,0.948,-0.368,1.343,3.632,-1.099,53.333,324689.000,1.000
-5.525,6.730,-4.515,-7.396,-3.617,9.301,4.313,-4.290,0.013,0.946,-0.373,1.221,3.662,-1.068,53.333,324690.000,1.000
-6.493,3.918,-5.107,-4.902,-1.732,9.178,5.897,-2.780,0.013,0.943,-0.370,1.160,3.784,-1.068,53.333,324691.000,1.000
-0.177,-3.572,-1.893,7.718,8.152,14.067,17.587,3.933,0.016,0.940,-0.369,1.160,3.998,-1.160,53.333,324692.000,1.000
6.386,-3.148,5.445,19.362,18.398,20.439,27.172,11.978,0.015,0.937,-0.368,1.282,4.089,-1.312,53.333,324693.000,1.000
4.764,5.624,10.443,18.445,19.145,20.294,22.935,13.847,0.015,0.938,-0.372,1.282,4.211,-1.343,53.333,324694.000,1.000
-3.153,10.328,8.598,8.789,11.665,12.158,9.719,8.783,0.017,0.936,-0.374,1.343,4.395,-1.495,53.333,324695.000,1.000
-7.311,3.285,3.846,4.836,6.913,3.680,2.768,4.365,0.016,0.932,-0.372,1.526,4.639,-1.465,53.333,324696.000,1.000
-3.257,-7.567,3.051,11.959,10.526,1.488,7.110,6.254,0.016,0.931,-0.369,1.556,4.761,-1.526,53.333,324697.000,1.000
1.548,-9.524,6.256,19.032,15.049,2.380,10.961,10.303,0.014,0.930,-0.369,1.678,5.005,-1.495,53.333,324698.000,1.000
-1.888,-2.357,6.742,13.936,10.589,-1.591,2.638,8.405,0.012,0.929,-0.369,1.953,5.096,-1.526,53.333,324699.000,1.000
-10.901,2.189,1.234,0.960,-0.528,-10.909,-12.140,0.403,0.012,0.931,-0.368,2.136,5.188,-1.526,53.333,324700.000,1.000
-13.761,-2.466,-4.246,-4.123,-5.728,-16.583,-16.876,-4.664,0.011,0.930,-0.368,2.380,5.249,-1.587,53.333,324701.000,1.000
-5.312,-8.348,-1.843,4.815,1.177,-11.877,-6.470,-0.391,0.011,0.929,-0.368,2.502,5.463,-1.434,53.333,324702.000,1.000
5.571,-4.462,7.209,15.760,11.305,-1.883,5.426,8.064,0.010,0.928,-0.370,2.686,5.615,-1.434,53.333,324703.000,1.000
7.012,6.747,13.164,14.318,11.924,2.260,4.052,10.157,0.011,0.929,-0.367,2.930,5.768,-1.343,53.333,324704.000,1.000
-0.977,11.378,9.632,2.451,2.625,-2.899,-7.605,3.241,0.010,0.930,-0.368,3.021,5.890,-1.343,53.333,324705.000,1.000
-7.204,2.818,1.565,-4.757,-4.768,-9.225,-13.669,-4.388,0.005,0.931,-0.366,3.143,5.859,-1.312,53.333,324706.000,1.000
-4.296,-8.408,-1.271,0.424,-2.125,-7.967,-6.891,-4.559,0.004,0.929,-0.367,3.326,5.951,-1.221,53.333,324707.000,1.000
2.320,-7.851,3.279,8.617,4.862,-0.824,2.474,0.525,0.004,0.930,-0.369,3.448,5.981,-1.221,53.333,324708.000,1.000
3.221,4.062,7.961,7.290,5.738,3.523,2.017,2.480,0.004,0.930,-0.370,3.479,5.890,-1.099,53.333,324709.000,1.000
-1.533,12.801,6.569,-1.632,0.113,1.740,-5.315,-1.207,0.003,0.931,-0.370,3.693,5.768,-1.160,53.333,324710.000,1.000
-3.146,8.824,1.898,-5.074,-2.516,-0.293,-6.048,-4.225,0.004,0.934,-0.369,3.845,5.798,-1.190,53.333,324711.000,1.000
2.653,-0.537,0.866,2.136,2.938,3.247,3.970,-1.139,0.007,0.935,-0.370,3.876,5.646,-1.038,53.333,324712.000,1.000
8.980,-1.892,4.337,9.506,9.325,9.322,12.942,4.369,0.005,0.938,-0.373,3.967,5.615,-1.099,53.333,324713.000,1.000
7.060,5.709,5.798,5.217,6.844,9.972,9.099,4.272,0.005,0.940,-0.374,3.998,5.493,-0.916,53.333,324714.000,1.000
-1.654,9.737,0.477,-7.501,-3.432,3.272,-3.085,-2.849,0.001,0.942,-0.373,3.937,5.432,-0.793,53.333,324715.000,1.000
-7.237,1.916,-7.703,-14.545,-10.750,-3.806,-8.854,-9.709,0.002,0.941,-0.374,3.815,5.341,-0.763,53.333,324716.000,1.000
-4.509,-9.825,-10.940,-9.857,-8.951,-4.572,-3.074,-9.903,0.001,0.942,-0.373,3.632,5.188,-0.702,53.333,324717.000,1.000
0.563,-11.730,-7.507,-2.911,-4.114,-1.149,3.454,-5.893,0.002,0.941,-0.372,3.540,5.005,-0.671,53.333,324718.000,1.000
0.011,-2.621,-3.261,-4.597,-5.176,-0.714,-0.171,-4.596,0.004,0.941,-0.377,3.479,4.913,-0.732,53.333,324719.000,1.000
-4.826,4.592,-3.400,-11.839,-11.252,-5.312,-9.584,-7.490,0.005,0.943,-0.379,3.357,4.730,-0.641,53.333,324720.000,1.000
-5.743,0.216,-6.093,-12.521,-13.434,-9.536,-11.733,-9.215,0.003,0.943,-0.378,3.265,4.547,-0.519,53.333,324721.000,1.000
0.221,-9.358,-6.013,-3.222,-7.916,-8.628,-3.677,-5.890,0.001,0.943,-0.378,3.082,4.395,-0.458,53.333,324722.000,1.000
6.061,-10.892,-2.488,5.162,-1.982,-5.528,2.704,-1.232,0.002,0.944,-0.377,2.960,4.181,-0.427,53.333,324723.000,1.000
3.982,-2.975,-0.921,1.801,-4.514,-7.125,-3.340,-1.928,0.002,0.943,-0.379,2.838,3.937,-0.366,53.333,324724.000,1.000
-3.751,2.170,-5.043,-8.976,-13.597,-14.416,-16.328,-8.137,0.001,0.942,-0.376,2.625,3.693,-0.305,53.333,324725.000,1.000
-7.317,-3.784,-10.825,-12.784,-18.369,-20.247,-21.192,-12.366,0.001,0.941,-0.381,2.563,3.540,-0.336,53.333,324726.000,1.000
-2.772,-13.596,-11.645,-4.614,-13.673,-18.820,-13.573,-9.443,0.000,0.942,-0.379,2.441,3.326,-0.275,53.333,324727.000,1.000
1.996,-14.956,-7.851,3.919,-7.547,-14.088,-6.067,-4.159,-0.002,0.942,-0.380,2.258,3.113,-0.244,53.333,324728.000,1.000
-2.076,-7.787,-6.624,0.309,-10.383,-14.581,-11.087,-5.129,0.000,0.943,-0.379,2.045,2.960,-0.275,53.333,324729.000,1.000
-12.383,-4.137,-11.945,-11.585,-20.431,-21.468,-23.673,-12.930,0.000,0.943,-0.379,1.923,2.777,-0.275,53.333,324730.000,1.000
-17.620,-11.030,-18.680,-16.683,-25.860,-26.535,-28.106,-18.938,-0.001,0.939,-0.380,1.923,2.502,-0.275,53.333,324731.000,1.000
-12.707,-20.164,-19.115,-9.134,-20.635,-23.087,-19.262,-16.600,-0.001,0.938,-0.380,1.831,2.167,-0.397,53.333,324732.000,1.000
-5.479,-19.115,-13.304,-0.075,-12.536,-15.045,-9.457,-9.953,-0.002,0.937,-0.381,1.862,1.984,-0.214,53.333,324733.000,1.000
-6.158,-8.803,-9.171,-2.246,-12.489,-11.852,-11.531,-7.967,0.000,0.938,-0.378,1.801,1.740,-0.122,53.333,324734.000,1.000
-13.869,-2.767,-12.032,-12.634,-19.774,-15.987,-21.455,-12.445,0.002,0.938,-0.378,1.770,1.648,-0.214,53.333,324735.000,1.000
-18.360,-8.857,-17.662,-16.862,-23.271,-19.981,-24.212,-15.901,0.003,0.935,-0.382,1.709,1.495,-0.214,53.333,324736.000,1.000
-14.073,-18.248,-18.038,-8.919,-16.640,-16.630,-14.420,-11.892,0.004,0.935,-0.380,1.709,1.343,-0.214,53.333,324737.000,1.000
-6.933,-16.770,-11.604,1.269,-6.278,-8.012,-2.922,-3.243,0.005,0.935,-0.380,1.678,1.282,-0.183,53.333,324738.000,1.000
-5.188,-3.587,-4.566,2.251,-1.747,-1.626,-0.901,2.557,0.004,0.936,-0.377,1.678,1.129,-0.275,53.333,324739.000,1.000
-7.719,7.792,-2.196,-3.129,-2.597,0.183,-4.232,3.705,0.004,0.934,-0.379,1.678,1.129,-0.214,53.333,324740.000,1.000
-5.913,7.566,-2.045,-2.230,0.303,2.939,0.335,5.947,0.005,0.936,-0.381,1.526,1.099,-0.244,53.333,324741.000,1.000
3.589,2.013,1.676,8.963,10.916,11.274,15.774,13.530,0.005,0.936,-0.377,1.495,1.007,-0.122,53.333,324742.000,1.000
13.101,3.449,8.861,19.204,21.110,21.050,29.212,22.019,0.007,0.935,-0.377,1.465,0.916,-0.244,53.333,324743.000,1.000
13.659,12.369,12.816,16.891,20.894,23.944,28.522,23.552,0.008,0.939,-0.378,1.373,0.885,-0.244,53.333,324744.000,1.000
7.063,16.730,9.280,6.042,11.903,18.458,18.446,17.502,0.008,0.939,-0.383,1.312,0.885,-0.214,53.333,324745.000,1.000
3.459,9.147,2.552,1.096,5.387,12.060,13.933,11.676,0.008,0.938,-0.379,1.160,0.977,-0.122,53.333,324746.000,1.000
7.714,-2.081,0.126,7.540,7.339,11.353,19.837,12.198,0.010,0.935,-0.379,1.099,1.099,-0.092,53.333,324747.000,1.000
13.132,-3.850,2.906,14.823,10.937,13.511,24.686,15.673,0.011,0.934,-0.378,1.099,0.946,-0.092,53.333,324748.000,1.000
11.142,3.939,4.400,11.278,6.585,10.685,17.022,14.309,0.011,0.932,-0.377,1.099,1.068,-0.061,53.333,324749.000,1.000
3.730,8.574,0.231,0.653,-4.167,1.507,1.915,7.140,0.014,0.933,-0.379,1.007,1.282,-0.092,53.333,324750.000,1.000
1.112,2.362,-5.357,-2.796,-10.235,-6.364,-5.368,1.694,0.013,0.936,-0.379,1.007,1.373,0.031,53.333,324751.000,1.000
7.460,-6.821,-5.414,5.741,-6.336,-6.639,-0.277,3.435,0.015,0.935,-0.379,0.885,1.465,0.031,53.333,324752.000,1.000
14.509,-6.809,-0.355,14.344,-0.721,-3.328,4.548,7.748,0.015,0.935,-0.380,0.946,1.465,-0.092,53.333,324753.000,1.000
12.223,1.533,2.052,10.175,-4.297,-5.571,-3.472,5.870,0.014,0.933,-0.379,0.977,1.526,0.031,53.333,324754.000,1.000
2.131,5.098,-3.005,-3.199,-15.903,-15.227,-19.507,-3.227,0.014,0.933,-0.379,0.916,1.678,-0.061,53.333,324755.000,1.000
-4.629,-3.308,-10.665,-10.543,-23.738,-23.998,-27.523,-11.125,0.015,0.933,-0.379,0.916,1.831,-0.092,53.333,324756.000,1.000
-1.857,-14.458,-12.518,-5.220,-20.912,-24.004,-21.461,-10.788,0.017,0.934,-0.381,0.977,2.045,-0.183,53.333,324757.000,1.000
4.222,-14.622,-7.425,2.638,-13.936,-17.535,-12.529,-5.331,0.015,0.935,-0.377,1.007,2.258,-0.153,53.333,324758.000,1.000
4.386,-3.795,-2.490,0.832,-12.884,-13.003,-13.050,-3.101,0.016,0.933,-0.379,1.007,2.502,-0.122,53.333,324759.000,1.000
-0.813,4.417,-3.341,-8.159,-17.432,-13.375,-19.757,-6.370,0.016,0.934,-0.382,0.977,2.594,-0.214,53.333,324760.000,1.000
-2.561,1.004,-7.065,-11.392,-18.078,-13.133,-19.506,-9.134,0.014,0.934,-0.381,0.854,2.625,-0.214,53.333,324761.000,1.000
3.297,-6.646,-6.782,-3.983,-10.070,-7.158,-8.625,-6.145,0.013,0.933,-0.381,0.946,2.808,-0.214,53.333,324762.000,1.000
10.222,-5.262,-1.158,4.095,-0.339,1.325,1.407,-0.284,0.015,0.933,-0.379,0.885,2.991,-0.336,53.333,324763.000,1.000
10.121,5.937,4.102,2.215,2.081,4.867,-0.177,1.794,0.015,0.935,-0.381,1.007,3.082,-0.366,53.333,324764.000,1.000
4.969,14.384,4.675,-5.518,-1.170,2.355,-7.998,-0.433,0.015,0.936,-0.378,1.007,3.235,-0.366,53.333,324765.000,1.000
4.634,11.909,4.026,-5.346,0.335,1.213,-7.180,0.042,0.015,0.937,-0.378,1.038,3.296,-0.427,53.333,324766.000,1.000
13.351,6.250,8.584,7.134,11.495,7.764,6.605,8.220,0.015,0.938,-0.377,0.977,3.357,-0.458,53.333,324767.000,1.000
23.211,9.962,18.053,20.043,24.366,18.507,20.914,19.519,0.017,0.939,-0.380,0.977,3.479,-0.397,53.333,324768.000,1.000
23.699,21.882,24.273,20.056,27.818,23.990,22.496,24.634,0.017,0.940,-0.381,0.946,3.571,-0.580,53.333,324769.000,1.000
14.772,27.379,20.958,9.281,21.427,20.465,13.999,20.858,0.014,0.938,-0.381,1.099,3.754,-0.641,53.333,324770.000,1.000
6.319,17.806,11.736,1.781,15.268,14.140,9.326,15.118,0.015,0.936,-0.383,1.007,3.784,-0.580,53.333,324771.000,1.000
5.093,2.604,5.587,4.747,16.149,12.520,14.383,14.694,0.013,0.936,-0.382,1.038,3.967,-0.580,53.333,324772.000,1.000
6.948,-2.656,5.800,10.023,19.178,14.827,19.779,18.191,0.013,0.936,-0.381,1.007,3.998,-0.580,53.333,324773.000,1.000
4.561,3.973,7.336,7.176,16.052,14.531,15.297,18.867,0.013,0.938,-0.381,0.946,4.120,-0.702,53.333,324774.000,1.000
-1.063,9.631,5.277,-0.891,7.791,9.652,5.252,14.885,0.013,0.940,-0.382,0.977,4.181,-0.610,53.333,324775.000,1.000
-2.066,4.771,1.831,-2.088,3.572,5.712,2.630,11.610,0.012,0.939,-0.383,1.068,4.211,-0.610,53.333,324776.000,1.000
4.274,-4.279,2.395,7.043,7.380,7.365,10.231,13.145,0.011,0.941,-0.382,1.129,4.181,-0.641,53.333,324777.000,1.000
10.448,-5.156,6.743,15.134,11.423,10.815,15.513,15.425,0.011,0.944,-0.380,1.038,4.303,-0.732,53.333,324778.000,1.000
8.137,2.421,8.166,10.628,6.056,8.121,6.966,11.072,0.011,0.942,-0.380,0.916,4.303,-0.671,53.333,324779.000,1.000
-0.144,6.164,2.649,-2.161,-6.693,-1.723,-9.748,0.052,0.011,0.942,-0.381,0.946,4.150,-0.763,53.333,324780.000,1.000
-3.280,-0.809,-4.501,-7.790,-14.677,-10.156,-18.178,-8.700,0.010,0.941,-0.378,0.946,4.242,-0.854,53.333,324781.000,1.000
4.386,-9.250,-4.601,0.357,-10.960,-9.407,-12.098,-7.967,0.010,0.939,-0.380,0.885,4.272,-1.038,53.333,324782.000,1.000
15.647,-6.075,3.160,11.545,-2.639,-2.459,-3.109,-1.405,0.010,0.939,-0.378,0.854,4.211,-1.129,53.333,324783.000,1.000
19.650,6.969,10.242,12.015,-1.411,0.759,-4.851,1.062,0.010,0.936,-0.381,0.885,4.181,-1.251,53.333,324784.000,1.000
15.538,14.511,9.421,2.792,-8.574,-3.967,-15.292,-4.323,0.012,0.935,-0.379,0.946,4.211,-1.160,53.333,324785.000,1.000
12.484,7.635,3.591,-2.793,-14.397,-10.405,-20.735,-11.178,0.012,0.933,-0.379,1.099,4.242,-1.190,53.333,324786.000,1.000
16.461,-4.434,1.031,2.000,-12.221,-11.120,-15.423,-12.406,0.010,0.931,-0.382,1.099,4.272,-1.099,53.333,324787.000,1.000
22.075,-6.938,3.943,8.260,-7.534,-7.638,-9.381,-9.762,0.010,0.929,-0.377,1.251,4.333,-1.160,53.333,324788.000,1.000
20.488,0.798,5.989,4.528,-9.550,-7.582,-13.709,-10.469,0.011,0.928,-0.381,1.312,4.333,-1.160,53.333,324789.000,1.000
12.077,5.381,1.815,-6.531,-17.366,-13.145,-24.092,-16.068,0.012,0.928,-0.379,1.434,4.211,-1.282,53.333,324790.000,1.000
6.172,-1.374,-4.892,-11.251,-20.218,-17.165,-25.756,-19.362,0.013,0.929,-0.377,1.556,4.333,-1.343,53.333,324791.000,1.000
8.229,-10.721,-6.131,-3.721,-11.810,-12.511,-13.350,-13.990,0.016,0.929,-0.380,1.709,4.303,-1.373,53.333,324792.000,1.000
12.318,-9.019,-0.583,5.851,0.982,-1.878,1.634,-3.414,0.014,0.929,-0.380,1.831,4.364,-1.312,53.333,324793.000,1.000
9.650,3.343,4.547,5.022,7.216,5.711,6.355,3.347,0.014,0.930,-0.381,1.892,4.333,-1.404,53.333,324794.000,1.000
0.989,12.084,3.191,-4.123,6.067,6.646,3.400,3.237,0.012,0.929,-0.379,2.014,4.395,-1.343,53.333,324795.000,1.000
-4.639,7.857,-1.905,-8.598,6.492,6.415,5.703,2.096,0.010,0.929,-0.380,2.167,4.425,-1.465,53.333,324796.000,1.000
-2.756,-1.631,-3.552,-2.953,13.592,10.861,17.357,5.636,0.008,0.928,-0.379,2.258,4.456,-1.495,53.333,324797.000,1.000
0.469,-2.423,-0.010,3.440,21.116,17.635,27.414,11.410,0.008,0.929,-0.378,2.319,4.333,-1.648,53.333,324798.000,1.000
-2.710,6.816,3.173,0.241,20.460,19.644,25.205,12.803,0.007,0.929,-0.376,2.472,4.364,-1.709,53.333,324799.000,1.000
-10.355,13.486,1.427,-8.656,13.236,15.349,15.587,8.976,0.006,0.932,-0.377,2.502,4.242,-1.740,53.333,324800.000,1.000
-13.346,8.673,-2.327,-10.131,9.564,11.272,12.621,6.483,0.005,0.932,-0.377,2.472,4.181,-1.862,53.333,324801.000,1.000
-8.279,-0.756,-2.048,-0.308,14.226,13.038,20.178,10.092,0.005,0.935,-0.379,2.563,3.906,-1.984,53.333,324802.000,1.000
-2.967,-2.332,2.177,9.024,19.657,17.201,26.172,15.444,0.004,0.935,-0.381,2.625,3.937,-1.984,53.333,324803.000,1.000
-6.628,3.979,3.217,5.375,15.726,15.386,18.673,14.046,0.004,0.934,-0.381,2.625,3.876,-2.136,53.333,324804.000,1.000
-17.540,5.624,-3.592,-7.901,3.532,5.657,2.287,4.508,0.003,0.934,-0.381,2.502,3.632,-2.350,53.333,324805.000,1.000
-24.695,-4.238,-13.231,-15.766,-5.495,-4.208,-7.501,-5.012,0.004,0.935,-0.383,2.411,3.540,-2.258,53.333,324806.000,1.000
-21.563,-15.761,-16.488,-10.969,-4.298,-6.369,-4.541,-6.840,0.005,0.935,-0.384,2.472,3.418,-2.350,53.333,324807.000,1.000
-13.743,-14.748,-11.278,-2.636,1.093,-2.675,0.658,-3.017,0.006,0.936,-0.381,2.472,3.418,-2.289,53.333,324808.000,1.000
-10.453,-1.716,-4.644,-2.675,0.557,-1.405,-3.726,-1.425,0.006,0.936,-0.379,2.411,3.326,-2.228,53.333,324809.000,1.000
-12.102,8.277,-3.233,-9.404,-6.309,-5.940,-14.534,-4.772,0.007,0.937,-0.377,2.411,3.265,-2.258,53.333,324810.000,1.000
-11.262,4.758,-5.558,-11.203,-10.823,-11.225,-19.094,-7.945,0.007,0.938,-0.379,2.350,3.204,-2.167,53.333,324811.000,1.000
-4.876,-5.569,-5.904,-4.295,-8.682,-12.171,-14.183,-6.676,0.008,0.937,-0.381,2.289,3.265,-2.045,53.333,324812.000,1.000
0.239,-9.116,-3.459,0.993,-6.742,-11.449,-11.287,-4.510,0.007,0.938,-0.382,2.258,3.235,-1.984,53.333,324813.000,1.000
-3.245,-3.892,-3.501,-5.332,-13.250,-15.391,-20.316,-7.859,0.008,0.939,-0.383,2.075,3.265,-1.831,53.333,324814.000,1.000
-12.017,-0.908,-9.087,-17.889,-25.191,-23.796,-34.404,-16.008,0.008,0.938,-0.380,1.953,3.204,-1.740,53.333,324815.000,1.000
-15.288,-7.361,-15.418,-21.817,-30.910,-28.492,-37.589,-20.575,0.006,0.937,-0.379,1.953,3.113,-1.648,53.333,324816.000,1.000
-8.766,-15.665,-15.514,-12.396,-25.184,-23.597,-25.733,-16.068,0.005,0.936,-0.383,1.923,3.174,-1.556,53.333,324817.000,1.000
-0.586,-13.981,-9.772,-1.740,-16.340,-13.750,-12.313,-7.459,0.007,0.935,-0.384,1.892,3.174,-1.495,53.333,324818.000,1.000
-0.675,-3.326,-5.834,-2.860,-15.217,-8.592,-10.734,-3.996,0.006,0.937,-0.383,1.831,3.174,-1.343,53.333,324819.000,1.000
-7.492,3.250,-8.262,-12.307,-20.531,-10.309,-16.767,-7.071,0.005,0.938,-0.382,1.801,3.143,-1.251,53.333,324820.000,1.000
-10.109,-1.300,-12.018,-15.000,-20.548,-10.943,-14.859,-8.507,0.006,0.937,-0.379,1.709,3.052,-1.038,53.333,324821.000,1.000
-2.830,-7.834,-8.883,-4.652,-8.910,-3.197,0.388,-1.653,0.005,0.938,-0.383,1.678,3.082,-1.007,53.333,324822.000,1.000
7.468,-3.162,1.657,8.058,6.866,9.839,16.933,9.734,0.004,0.938,-0.384,1.617,2.991,-0.916,53.333,324823.000,1.000
10.943,11.843,11.636,10.396,15.519,18.970,21.813,16.648,0.005,0.938,-0.385,1.556,2.899,-0.885,53.333,324824.000,1.000
7.732,22.838,14.721,4.575,16.455,20.853,18.177,16.506,0.004,0.939,-0.383,1.495,2.869,-0.671,53.333,324825.000,1.000
6.456,20.530,13.442,3.461,18.755,21.152,19.430,15.358,0.004,0.938,-0.380,1.312,2.869,-0.519,53.333,324826.000,1.000
10.985,12.175,14.234,11.539,26.869,25.212,29.280,18.264,0.004,0.938,-0.380,1.312,2.838,-0.427,53.333,324827.000,1.000
14.442,10.746,17.743,18.029,33.472,29.781,35.872,21.701,0.009,0.937,-0.380,1.251,2.838,-0.427,53.333,324828.000,1.000
9.035,16.982,18.051,11.940,29.636,27.555,28.346,18.676,0.007,0.940,-0.379,1.099,2.716,-0.366,53.333,324829.000,1.000
-2.025,19.160,11.827,-1.757,18.216,18.261,12.900,9.459,0.006,0.939,-0.379,1.160,2.747,-0.397,53.333,324830.000,1.000
-7.479,10.628,4.323,-7.537,11.516,10.536,5.765,2.715,0.006,0.938,-0.378,1.068,2.625,-0.305,53.333,324831.000,1.000
-2.725,0.027,3.002,0.185,15.462,11.056,11.867,4.506,0.007,0.937,-0.378,0.946,2.594,-0.244,53.333,324832.000,1.000
3.853,-0.216,7.433,9.505,21.835,15.739,18.474,10.074,0.007,0.934,-0.380,0.793,2.563,-0.305,53.333,324833.000,1.000
2.578,9.451,10.233,7.613,20.024,15.901,13.357,10.570,0.006,0.935,-0.378,0.702,2.686,-0.153,53.333,324834.000,1.000
-4.034,16.612,7.516,-1.615,11.818,10.545,1.998,5.252,0.008,0.934,-0.381,0.702,2.686,-0.183,53.333,324835.000,1.000
-5.081,13.524,3.907,-3.691,8.380,7.264,-0.492,1.852,0.010,0.935,-0.380,0.671,2.747,-0.214,53.333,324836.000,1.000
3.445,7.115,5.826,5.896,14.292,11.184,9.153,5.341,0.010,0.936,-0.380,0.641,2.655,-0.183,53.333,324837.000,1.000
12.887,8.633,12.255,15.139,20.800,17.285,17.242,10.700,0.011,0.937,-0.379,0.610,2.686,-0.183,53.333,324838.000,1.000
12.959,16.908,15.207,11.491,17.120,16.275,11.057,9.216,0.010,0.935,-0.382,0.641,2.655,-0.183,53.333,324839.000,1.000
4.836,19.072,9.834,-1.277,4.767,6.601,-4.251,0.114,0.011,0.933,-0.381,0.610,2.655,-0.183,53.333,324840.000,1.000
-0.855,8.591,1.132,-7.960,-4.148,-3.092,-12.275,-7.873,0.012,0.934,-0.378,0.580,2.655,-0.275,53.333,324841.000,1.000
1.861,-4.333,-1.997,-1.896,-2.388,-4.501,-6.541,-7.320,0.012,0.937,-0.376,0.610,2.838,-0.397,53.333,324842.000,1.000
7.189,-5.151,2.256,7.035,3.901,0.613,2.227,-1.007,0.011,0.937,-0.376,0.549,2.777,-0.458,53.333,324843.000,1.000
6.423,5.923,6.848,6.621,4.442,3.919,1.786,2.526,0.011,0.936,-0.377,0.610,2.838,-0.397,53.333,324844.000,1.000
0.172,14.091,5.453,-1.178,-1.261,1.965,-5.031,0.342,0.010,0.933,-0.377,0.519,2.716,-0.519,53.333,324845.000,1.000
-2.567,9.741,0.708,-3.605,-3.932,0.296,-5.066,-1.634,0.009,0.930,-0.378,0.610,2.716,-0.549,53.333,324846.000,1.000
2.772,0.796,-0.085,4.554,1.845,4.813,6.013,2.337,0.012,0.929,-0.378,0.671,2.655,-0.549,53.333,324847.000,1.000
9.247,0.748,4.182,12.982,9.293,12.448,16.710,8.979,0.012,0.929,-0.379,0.763,2.716,-0.549,53.333,324848.000,1.000
7.606,9.682,6.736,9.902,8.623,14.824,15.203,10.236,0.012,0.929,-0.378,0.946,2.747,-0.732,53.333,324849.000,1.000
-0.780,14.565,2.797,-1.180,1.059,9.971,5.938,4.772,0.010,0.929,-0.376,0.946,2.716,-0.854,53.333,324850.000,1.000
-5.647,7.652,-3.381,-5.913,-2.461,5.251,3.704,0.141,0.009,0.928,-0.378,1.068,2.777,-0.916,53.333,324851.000,1.000
-1.804,-2.521,-4.123,1.354,3.768,7.384,13.259,2.559,0.010,0.930,-0.380,1.129,2.808,-0.916,53.333,324852.000,1.000
3.979,-2.797,1.191,9.959,12.298,13.340,22.725,8.478,0.010,0.930,-0.377,1.190,2.777,-0.946,53.333,324853.000,1.000
2.311,6.166,5.021,7.533,12.376,14.389,19.699,9.379,0.010,0.931,-0.376,1.221,2.808,-0.946,53.333,324854.000,1.000
-6.079,10.470,1.651,-3.269,4.191,7.853,8.007,3.287,0.010,0.934,-0.376,1.312,2.777,-1.099,53.333,324855.000,1.000
-11.613,1.999,-5.295,-8.744,-1.843,0.528,2.111,-2.729,0.009,0.934,-0.374,1.373,2.838,-1.099,53.333,324856.000,1.000
-9.312,-10.415,-8.119,-3.289,0.279,-0.945,6.877,-2.561,0.010,0.936,-0.376,1.343,2.777,-1.099,53.333,324857.000,1.000
-5.499,-12.847,-5.498,3.010,4.100,0.882,10.989,0.562,0.007,0.935,-0.376,1.312,2.747,-0.946,53.333,324858.000,1.000
-8.414,-4.763,-3.625,-1.083,0.428,-1.523,3.277,-0.973,0.008,0.936,-0.378,1.312,2.686,-1.068,53.333,324859.000,1.000
-16.161,0.900,-6.918,-11.762,-9.111,-9.444,-11.003,-8.057,0.008,0.936,-0.379,1.312,2.655,-1.007,53.333,324860.000,1.000
-18.938,-4.208,-11.462,-15.061,-13.776,-15.563,-16.772,-13.254,0.007,0.937,-0.376,1.282,2.686,-1.068,53.333,324861.000,1.000
-12.409,-12.430,-10.198,-6.037,-8.280,-13.716,-9.489,-10.799,0.007,0.938,-0.377,1.404,2.655,-1.007,53.333,324862.000,1.000
-3.544,-10.832,-2.559,4.472,0.122,-7.153,-1.016,-4.232,0.008,0.937,-0.373,1.373,2.625,-1.068,53.333,324863.000,1.000
-1.225,0.492,4.419,4.535,1.474,-4.215,-3.283,-1.534,0.005,0.938,-0.373,1.373,2.563,-0.977,53.333,324864.000,1.000
-4.710,7.849,4.977,-3.113,-3.790,-7.446,-12.486,-4.672,0.004,0.937,-0.376,1.343,2.655,-0.916,53.333,324865.000,1.000
-5.188,2.615,2.010,-5.266,-5.860,-10.421,-14.800,-7.282,0.001,0.936,-0.376,1.343,2.594,-0.885,53.333,324866.000,1.000
1.601,-6.849,2.666,3.272,0.584,-6.825,-5.795,-3.773,0.005,0.935,-0.375,1.343,2.502,-0.854,53.333,324867.000,1.000
8.640,-7.151,7.789,11.979,8.318,0.183,2.817,2.285,0.005,0.935,-0.379,1.434,2.441,-0.885,53.333,324868.000,1.000
6.893,1.506,10.528,8.982,7.218,1.971,-0.892,2.790,0.003,0.936,-0.376,1.495,2.289,-0.763,53.333,324869.000,1.000
-1.832,6.136,6.327,-2.072,-1.362,-3.354,-12.142,-3.285,0.005,0.937,-0.378,1.404,2.319,-0.763,53.333,324870.000,1.000
-6.785,-0.564,-0.144,-6.572,-5.925,-7.948,-15.507,-7.924,0.006,0.935,-0.374,1.465,2.228,-0.671,53.333,324871.000,1.000
-2.602,-9.870,-1.021,1.158,-0.329,-4.791,-5.844,-4.734,0.005,0.935,-0.374,1.617,2.228,-0.671,53.333,324872.000,1.000
3.684,-9.027,4.112,10.163,7.971,2.834,4.861,2.482,0.007,0.932,-0.376,1.587,2.197,-0.549,53.333,324873.000,1.000
2.523,0.987,7.636,7.936,8.203,5.860,4.034,4.986,0.007,0.933,-0.374,1.709,2.106,-0.610,53.333,324874.000,1.000
-5.042,6.480,4.281,-2.520,0.853,1.656,-4.414,0.957,0.006,0.934,-0.378,1.740,2.045,-0.519,53.333,324875.000,1.000
-8.949,-0.373,-1.715,-7.001,-3.362,-2.743,-5.886,-2.251,0.004,0.934,-0.377,1.709,2.045,-0.580,53.333,324876.000,1.000
-4.076,-10.841,-2.486,0.233,1.516,-0.653,4.408,1.520,0.007,0.935,-0.378,1.831,1.953,-0.519,53.333,324877.000,1.000
2.787,-11.524,2.721,8.628,8.531,5.005,14.698,8.633,0.008,0.935,-0.379,1.740,1.923,-0.427,53.333,324878.000,1.000
2.549,-2.501,6.739,6.166,7.695,6.046,12.999,10.739,0.006,0.934,-0.379,1.770,2.014,-0.397,53.333,324879.000,1.000
-3.625,2.978,4.344,-3.921,-0.041,0.597,3.667,6.319,0.007,0.935,-0.381,1.862,2.075,-0.458,53.333,324880.000,1.000
-6.405,-3.429,-1.068,-7.919,-4.369,-4.435,1.010,2.479,0.008,0.936,-0.383,1.892,1.984,-0.366,53.333,324881.000,1.000
-1.892,-14.054,-2.851,-1.066,-0.353,-3.258,8.978,4.731,0.009,0.935,-0.386,1.831,1.984,-0.366,53.333,324882.000,1.000
2.533,-16.132,-0.664,5.595,4.433,0.561,15.390,9.198,0.010,0.935,-0.384,1.862,2.014,-0.305,53.333,324883.000,1.000
-1.666,-9.533,-0.920,0.467,0.354,-1.018,8.771,8.008,0.010,0.935,-0.381,1.984,2.014,-0.244,53.333,324884.000,1.000
-12.073,-6.663,-7.508,-12.353,-10.676,-9.174,-5.468,0.380,0.011,0.935,-0.382,1.984,2.136,-0.214,53.333,324885.000,1.000
-18.024,-14.725,-15.692,-18.285,-17.257,-16.062,-11.904,-5.931,0.012,0.939,-0.382,1.923,2.106,-0.305,53.333,324886.000,1.000
-14.508,-24.962,-17.790,-11.788,-13.539,-14.917,-5.652,-4.849,0.011,0.939,-0.379,1.892,2.106,-0.366,53.333,324887.000,1.000
-8.427,-24.101,-13.148,-3.500,-6.773,-8.828,1.436,0.005,0.010,0.939,-0.380,1.862,2.136,-0.397,53.333,324888.000,1.000
-8.991,-12.662,-8.982,-5.501,-7.319,-6.502,-2.896,0.271,0.010,0.939,-0.379,1.678,2.258,-0.427,53.333,324889.000,1.000
-15.334,-4.729,-10.739,-14.945,-14.759,-10.736,-14.815,-5.935,0.011,0.939,-0.381,1.709,2.411,-0.336,53.333,324890.000,1.000
-18.067,-9.158,-14.979,-18.356,-18.959,-15.201,-20.093,-11.738,0.010,0.937,-0.381,1.587,2.380,-0.427,53.333,324891.000,1.000
-12.394,-17.824,-14.373,-10.452,-14.280,-13.593,-13.855,-11.102,0.010,0.936,-0.380,1.556,2.380,-0.427,53.333,324892.000,1.000
-4.478,-16.841,-7.731,-1.260,-7.051,-8.181,-6.864,-6.828,0.010,0.936,-0.379,1.556,2.350,-0.366,53.333,324893.000,1.000
-2.519,-5.385,-1.397,-1.875,-6.230,-6.113,-9.897,-6.105,0.012,0.937,-0.382,1.526,2.411,-0.397,53.333,324894.000,1.000
-5.317,3.534,-0.421,-8.921,-10.602,-9.008,-18.289,-10.122,0.010,0.936,-0.380,1.434,2.533,-0.397,53.333,324895.000,1.000
-4.280,1.151,-1.835,-9.379,-10.444,-10.482,-18.295,-12.302,0.008,0.935,-0.379,1.465,2.625,-0.519,53.333,324896.000,1.000
3.932,-5.260,0.674,0.856,-1.498,-5.222,-6.570,-7.719,0.011,0.933,-0.380,1.495,2.563,-0.549,53.333,324897.000,1.000
11.814,-3.156,7.247,10.494,8.218,3.003,4.399,-0.556,0.014,0.937,-0.379,1.617,2.625,-0.641,53.333,324898.000,1.000
10.623,7.206,10.986,7.803,8.653,5.853,2.867,1.061,0.012,0.935,-0.379,1.587,2.594,-0.702,53.333,324899.000,1.000
2.310,12.825,7.281,-3.348,1.268,1.595,-6.212,-4.021,0.010,0.935,-0.378,1.526,2.716,-0.671,53.333,324900.000,1.000
-2.589,6.271,0.632,-8.390,-2.650,-2.272,-7.785,-8.229,0.009,0.934,-0.380,1.434,2.716,-0.732,53.333,324901.000,1.000
1.531,-3.239,-0.669,-1.362,3.182,1.224,3.043,-5.240,0.008,0.935,-0.382,1.465,2.686,-0.824,53.333,324902.000,1.000
8.512,-1.821,4.843,7.542,12.024,9.372,14.582,1.666,0.009,0.934,-0.381,1.404,2.686,-0.763,53.333,324903.000,1.000
9.472,10.295,10.301,6.431,13.708,13.632,14.662,4.222,0.009,0.933,-0.383,1.465,2.686,-0.793,53.333,324904.000,1.000
5.249,19.147,10.208,-1.695,8.657,11.300,7.177,0.501,0.009,0.931,-0.381,1.587,2.686,-0.793,53.333,324905.000,1.000
5.053,16.056,7.901,-3.132,7.036,8.941,6.350,-2.583,0.007,0.933,-0.383,1.526,2.747,-0.824,53.333,324906.000,1.000
13.089,8.944,10.341,7.204,14.117,12.778,16.546,0.835,0.009,0.933,-0.381,1.587,2.747,-0.793,53.333,324907.000,1.000
21.732,10.387,17.455,17.988,22.126,19.346,25.553,6.955,0.009,0.932,-0.382,1.587,2.777,-0.793,53.333,324908.000,1.000
21.101,19.319,21.170,16.276,20.209,19.657,20.933,7.124,0.007,0.932,-0.381,1.617,2.777,-0.885,53.333,324909.000,1.000
12.161,22.070,15.899,4.794,9.098,11.429,7.108,-0.351,0.007,0.933,-0.380,1.678,2.686,-0.763,53.333,324910.000,1.000
5.406,11.412,6.157,-1.955,0.317,2.533,-0.382,-7.685,0.007,0.934,-0.380,1.678,2.686,-0.763,53.333,324911.000,1.000
6.846,-2.818,0.775,2.632,0.914,0.734,4.346,-7.948,0.008,0.932,-0.380,1.740,2.747,-0.793,53.333,324912.000,1.000
10.402,-6.492,1.508,8.772,4.562,3.700,10.132,-4.146,0.006,0.933,-0.384,1.801,2.625,-0.763,53.333,324913.000,1.000
6.952,-0.004,1.489,4.452,0.993,2.803,4.705,-4.689,0.005,0.932,-0.381,1.892,2.625,-0.671,53.333,324914.000,1.000
-2.665,2.717,-4.603,-7.557,-9.490,-4.681,-8.223,-11.594,0.006,0.929,-0.380,1.953,2.716,-0.702,53.333,324915.000,1.000
-8.622,-6.385,-12.762,-13.349,-16.397,-11.783,-14.185,-17.642,0.007,0.930,-0.379,2.106,2.777,-0.671,53.333,324916.000,1.000
-5.628,-18.365,-14.980,-7.059,-13.658,-11.562,-8.108,-16.354,0.005,0.930,-0.382,2.106,2.655,-0.732,53.333,324917.000,1.000
-0.164,-19.654,-10.229,1.103,-8.033,-6.759,-1.321,-10.897,0.008,0.930,-0.385,2.136,2.655,-0.732,53.333,324918.000,1.000
-1.194,-10.537,-5.701,-0.733,-9.480,-5.833,-5.541,-9.449,0.009,0.934,-0.382,2.167,2.563,-0.702,53.333,324919.000,1.000
-7.559,-4.474,-6.853,-9.554,-17.104,-11.135,-16.342,-13.766,0.007,0.933,-0.383,2.197,2.502,-0.793,53.333,324920.000,1.000
-9.922,-9.671,-10.372,-12.079,-20.583,-15.913,-19.387,-17.162,0.006,0.934,-0.384,2.258,2.563,-0.854,53.333,324921.000,1.000
-4.070,-17.955,-9.285,-3.653,-14.662,-13.822,-10.429,-14.198,0.008,0.935,-0.385,2.289,2.686,-0.824,53.333,324922.000,1.000
3.230,-16.015,-2.765,5.140,-6.383,-7.498,-1.136,-8.283,0.007,0.934,-0.386,2.228,2.594,-0.824,53.333,324923.000,1.000
3.476,-3.982,2.549,3.002,-5.462,-4.786,-3.073,-7.004,0.009,0.935,-0.388,2.228,2.716,-0.763,53.333,324924.000,1.000
-2.274,4.136,1.283,-6.711,-11.312,-8.150,-12.161,-11.850,0.009,0.934,-0.385,2.136,2.686,-0.824,53.333,324925.000,1.000
-5.418,-0.888,-3.742,-10.828,-14.368,-11.735,-14.800,-16.338,0.006,0.934,-0.385,2.258,2.655,-0.671,53.333,324926.000,1.000
-2.160,-11.228,-5.751,-4.633,-9.657,-9.928,-6.942,-15.033,0.006,0.933,-0.386,2.319,2.686,-0.702,53.333,324927.000,1.000
0.985,-12.978,-3.460,1.628,-3.793,-5.415,0.322,-11.014,0.005,0.932,-0.384,2.289,2.655,-0.702,53.333,324928.000,1.000
-3.563,-5.026,-2.465,-2.793,-5.521,-5.315,-3.489,-11.308,0.005,0.932,-0.382,2.289,2.625,-0.702,53.333,324929.000,1.000
-13.182,0.205,-6.669,-13.655,-12.953,-10.699,-13.057,-16.592,0.005,0.932,-0.383,2.319,2.625,-0.488,53.333,324930.000,1.000
-17.906,-5.489,-12.229,-17.120,-15.749,-14.573,-14.285,-19.900,0.004,0.932,-0.383,2.380,2.594,-0.488,53.333,324931.000,1.000
-13.933,-14.783,-12.833,-8.975,-9.613,-11.553,-4.197,-16.467,0.003,0.935,-0.384,2.289,2.563,-0.458,53.333,324932.000,1.000
-8.907,-15.312,-8.744,-0.830,-2.715,-5.617,4.245,-10.790,0.003,0.936,-0.386,2.411,2.472,-0.519,53.333,324933.000,1.000
-11.152,-6.793,-6.462,-4.183,-4.519,-4.651,-0.241,-10.561,0.003,0.937,-0.385,2.289,2.411,-0.488,53.333,324934.000,1.000
-17.591,-0.922,-9.270,-14.172,-12.276,-9.150,-11.319,-15.702,0.005,0.938,-0.385,2.167,2.411,-0.488,53.333,324935.000,1.000
-17.637,-4.797,-12.274,-15.942,-14.392,-11.228,-13.330,-18.136,0.003,0.939,-0.384,2.167,2.350,-0.458,53.333,324936.000,1.000
-8.127,-11.158,-9.239,-5.211,-6.422,-5.660,-2.779,-12.960,0.005,0.940,-0.382,2.075,2.258,-0.427,53.333,324937.000,1.000
1.505,-8.838,-1.698,5.470,2.498,2.430,6.680,-5.469,0.006,0.941,-0.384,1.984,2.075,-0.336,53.333,324938.000,1.000
1.037,0.966,2.190,3.299,1.574,3.864,2.564,-4.429,0.004,0.938,-0.386,1.862,2.075,-0.336,53.333,324939.000,1.000
-7.663,5.407,-2.167,-8.028,-7.540,-2.719,-9.868,-10.720,0.004,0.938,-0.385,1.801,2.106,-0.305,53.333,324940.000,1.000
-13.420,-2.333,-9.627,-13.633,-13.067,-8.962,-14.797,-16.214,0.006,0.938,-0.387,1.678,2.106,-0.275,53.333,324941.000,1.000
-10.071,-12.641,-11.402,-7.189,-8.431,-7.287,-6.712,-14.189,0.005,0.937,-0.385,1.587,2.045,-0.336,53.333,324942.000,1.000
-3.473,-11.613,-5.862,1.506,-0.247,-0.141,3.092,-7.583,0.004,0.935,-0.385,1.434,2.045,-0.275,53.333,324943.000,1.000
-2.543,0.128,-0.067,0.773,1.258,3.891,2.571,-4.397,0.005,0.935,-0.383,1.434,2.045,-0.183,53.333,324944.000,1.000
-6.893,7.941,-0.079,-6.719,-3.900,1.626,-4.694,-6.683,0.006,0.937,-0.385,1.373,1.984,-0.122,53.333,324945.000,1.000
-7.860,2.620,-3.144,-7.943,-6.104,-1.136,-5.128,-8.083,0.006,0.937,-0.385,1.312,1.984,0.000,53.333,324946.000,1.000
-1.390,-7.843,-2.422,1.823,-0.245,1.299,5.114,-3.292,0.007,0.938,-0.385,1.282,1.984,0.031,53.333,324947.000,1.000
5.388,-10.076,2.591,11.634,6.427,5.652,13.828,3.786,0.004,0.937,-0.388,1.221,2.045,0.092,53.333,324948.000,1.000
3.552,-3.888,4.886,9.436,3.952,3.775,8.978,4.871,0.005,0.935,-0.389,1.099,1.984,0.122,53.333,324949.000,1.000
-5.219,-1.955,-0.315,-1.524,-6.490,-5.852,-4.836,-1.441,0.004,0.934,-0.388,1.099,1.892,0.214,53.333,324950.000,1.000
-10.545,-11.365,-8.539,-7.166,-13.779,-15.225,-12.386,-7.570,0.005,0.933,-0.390,1.038,1.923,0.214,53.333,324951.000,1.000
-7.030,-22.697,-11.532,-1.709,-11.511,-16.689,-7.993,-6.929,0.006,0.931,-0.390,1.068,1.892,0.275,53.333,324952.000,1.000
-1.137,-22.197,-7.965,4.759,-6.125,-12.391,-2.343,-2.469,0.008,0.931,-0.386,1.068,1.892,0.305,53.333,324953.000,1.000
-1.867,-10.376,-4.688,0.691,-7.374,-10.491,-6.792,-2.106,0.008,0.931,-0.386,1.068,1.831,0.336,53.333,324954.000,1.000
-8.138,-1.306,-6.858,-10.491,-14.388,-13.469,-17.040,-7.405,0.010,0.932,-0.386,1.099,1.953,0.336,53.333,324955.000,1.000
-10.492,-3.765,-10.860,-14.948,-16.898,-14.989,-19.095,-11.426,0.008,0.934,-0.386,1.160,1.923,0.305,53.333,324956.000,1.000
-4.476,-9.982,-9.598,-7.549,-9.784,-9.437,-9.098,-8.541,0.010,0.935,-0.385,1.068,1.892,0.275,53.333,324957.000,1.000
3.059,-7.131,-2.600,1.054,-0.535,-0.494,0.762,-2.363,0.008,0.934,-0.386,1.038,1.923,0.336,53.333,324958.000,1.000
3.240,4.346,2.922,-0.964,0.601,3.157,-1.463,-0.906,0.009,0.932,-0.384,0.916,1.923,0.397,53.333,324959.000,1.000
-2.872,10.900,1.498,-10.506,-5.808,-0.894,-11.460,-5.683,0.010,0.933,-0.384,0.977,2.075,0.336,53.333,324960.000,1.000
-6.159,4.256,-3.630,-14.189,-9.773,-6.018,-14.998,-9.826,0.009,0.929,-0.387,0.916,2.014,0.275,53.333,324961.000,1.000
-2.311,-7.202,-5.345,-7.057,-6.017,-5.860,-7.746,-7.704,0.010,0.927,-0.387,0.946,2.075,0.153,53.333,324962.000,1.000
2.438,-9.516,-2.243,0.827,-0.968,-2.601,-0.884,-2.468,0.010,0.927,-0.387,1.038,2.167,0.244,53.333,324963.000,1.000
0.524,-1.580,0.119,-1.137,-3.074,-2.950,-4.927,-1.144,0.009,0.928,-0.388,1.007,2.228,0.183,53.333,324964.000,1.000
-5.999,4.081,-2.478,-9.050,-10.370,-8.004,-14.645,-4.546,0.011,0.929,-0.386,1.007,2.228,0.061,53.333,324965.000,1.000
-8.225,-1.102,-6.898,-10.080,-12.882,-11.368,-16.231,-6.277,0.010,0.927,-0.388,1.068,2.197,-0.092,53.333,324966.000,1.000
-3.067,-10.096,-7.247,-0.908,-6.600,-8.160,-6.777,-2.146,0.011,0.928,-0.387,1.099,2.228,-0.122,53.333,324967.000,1.000
1.966,-10.443,-3.460,6.849,0.501,-2.227,1.179,3.347,0.012,0.927,-0.388,1.129,2.380,-0.153,53.333,324968.000,1.000
-0.841,-1.597,-1.395,2.478,-0.658,-0.990,-3.076,3.042,0.012,0.925,-0.387,1.221,2.411,-0.214,53.333,324969.000,1.000
-7.895,4.891,-3.963,-8.224,-7.159,-4.653,-12.881,-2.304,0.014,0.928,-0.386,1.251,2.594,-0.366,53.333,324970.000,1.000
-8.351,1.944,-6.295,-9.874,-7.511,-5.353,-12.591,-4.152,0.012,0.928,-0.389,1.343,2.716,-0.336,53.333,324971.000,1.000
1.017,-3.361,-2.475,1.715,2.338,1.800,0.865,2.326,0.013,0.930,-0.386,1.373,2.686,-0.397,53.333,324972.000,1.000
10.542,-0.441,5.402,13.323,12.471,10.992,12.939,11.088,0.012,0.930,-0.388,1.465,2.747,-0.580,53.333,324973.000,1.000
9.661,8.905,8.777,11.492,11.419,12.413,10.276,12.540,0.013,0.930,-0.393,1.526,2.869,-0.671,53.333,324974.000,1.000
0.547,12.221,3.572,0.167,1.248,5.019,-1.695,6.009,0.012,0.930,-0.389,1.526,2.960,-0.763,53.333,324975.000,1.000
-4.729,3.940,-3.890,-4.799,-4.884,-1.647,-6.027,0.803,0.012,0.933,-0.391,1.648,3.021,-0.671,53.333,324976.000,1.000
0.012,-5.891,-4.605,3.059,0.208,0.451,3.264,4.083,0.011,0.934,-0.391,1.709,3.052,-0.702,53.333,324977.000,1.000
7.412,-4.546,1.652,12.538,8.812,7.730,13.810,11.677,0.011,0.935,-0.387,1.862,3.021,-0.793,53.333,324978.000,1.000
7.275,6.287,6.536,10.647,9.467,10.415,12.434,14.197,0.011,0.936,-0.390,1.770,3.204,-0.885,53.333,324979.000,1.000
0.518,12.666,4.427,0.425,2.512,5.804,3.102,9.753,0.011,0.937,-0.387,1.709,3.204,-0.854,53.333,324980.000,1.000
-2.672,7.127,-0.503,-3.710,-1.103,1.293,0.705,5.951,0.009,0.937,-0.385,1.770,3.143,-0.793,53.333,324981.000,1.000
2.894,-1.112,-0.346,4.037,4.725,3.825,10.063,9.162,0.010,0.938,-0.384,1.648,3.296,-1.007,53.333,324982.000,1.000
10.557,1.418,5.843,13.187,13.043,10.487,19.326,15.933,0.008,0.938,-0.386,1.587,3.326,-0.977,53.333,324983.000,1.000
11.299,13.953,10.966,11.747,13.679,12.742,16.428,17.933,0.007,0.941,-0.384,1.648,3.235,-1.099,53.333,324984.000,1.000
6.126,22.271,9.633,2.717,7.229,8.189,5.633,13.379,0.007,0.938,-0.385,1.495,3.357,-1.007,53.333,324985.000,1.000
4.252,17.718,5.305,-0.460,3.859,3.590,1.363,9.193,0.006,0.939,-0.384,1.343,3.357,-1.099,53.333,324986.000,1.000
9.875,8.548,5.173,7.107,8.818,5.183,8.073,11.192,0.007,0.941,-0.383,1.373,3.357,-1.007,53.333,324987.000,1.000
16.098,8.210,10.059,14.855,14.966,9.888,14.153,16.058,0.008,0.941,-0.385,1.282,3.326,-1.068,53.333,324988.000,1.000
14.513,16.891,13.400,11.563,12.769,9.695,8.330,16.182,0.007,0.941,-0.385,1.129,3.265,-1.129,53.333,324989.000,1.000
7.314,21.875,10.823,1.461,4.077,3.311,-4.045,10.709,0.006,0.942,-0.384,0.977,3.204,-1.038,53.333,324990.000,1.000
4.902,15.874,6.772,-0.918,0.338,-1.305,-7.566,7.275,0.006,0.942,-0.382,0.885,3.235,-0.977,53.333,324991.000,1.000
11.672,7.452,8.468,9.358,7.170,2.521,2.376,11.546,0.007,0.942,-0.385,0.885,3.265,-0.916,53.333,324992.000,1.000
19.583,9.022,15.491,20.410,16.500,11.009,13.186,19.045,0.009,0.942,-0.386,0.763,3.204,-0.885,53.333,324993.000,1.000
18.731,19.272,19.741,19.314,17.314,14.884,12.124,20.895,0.008,0.941,-0.385,0.641,3.265,-0.854,53.333,324994.000,1.000
10.427,24.398,15.953,9.202,10.213,11.574,3.239,15.580,0.008,0.940,-0.385,0.610,3.296,-0.671,53.333,324995.000,1.000
4.914,16.617,8.431,4.304,5.853,7.971,0.966,10.569,0.007,0.935,-0.386,0.580,3.296,-0.702,53.333,324996.000,1.000
7.288,4.805,5.108,10.201,9.923,10.410,9.711,11.907,0.009,0.935,-0.385,0.549,3.296,-0.519,53.333,324997.000,1.000
11.148,2.743,7.303,16.722,15.618,15.990,17.923,16.304,0.008,0.935,-0.381,0.549,3.265,-0.610,53.333,324998.000,1.000
8.471,10.939,9.027,12.990,13.823,17.095,14.682,16.444,0.005,0.933,-0.382,0.488,3.418,-0.458,53.333,324999.000,1.000
1.555,16.644,6.224,3.275,6.407,12.412,5.372,11.717,0.003,0.931,-0.379,0.580,3.418,-0.397,53.333,325000.000,1.000
0.110,11.583,2.667,1.271,3.811,8.807,4.329,9.131,0.003,0.931,-0.382,0.488,3.265,-0.305,53.333,325001.000,1.000
7.575,3.012,4.422,10.790,10.287,11.536,14.634,13.202,0.004,0.931,-0.379,0.427,3.265,-0.275,53.333,325002.000,1.000
15.827,3.093,10.796,19.845,17.481,16.583,23.261,19.076,0.005,0.928,-0.381,0.458,3.204,-0.305,53.333,325003.000,1.000
15.566,11.304,14.304,16.333,15.216,15.674,18.283,18.418,0.006,0.925,-0.380,0.549,3.143,-0.305,53.333,325004.000,1.000
8.343,14.608,10.131,4.039,4.906,7.291,4.709,10.267,0.006,0.924,-0.378,0.610,3.052,-0.336,53.333,325005.000,1.000
4.297,5.784,2.736,-2.486,-2.237,-0.917,-2.240,2.528,0.006,0.924,-0.382,0.641,3.143,-0.244,53.333,325006.000,1.000
8.725,-5.515,0.455,2.845,0.257,-1.706,2.868,2.025,0.008,0.924,-0.380,0.641,3.143,-0.183,53.333,325007.000,1.000
15.377,-5.053,4.911,10.233,6.251,2.789,9.348,6.190,0.008,0.927,-0.381,0.732,3.113,-0.275,53.333,325008.000,1.000
15.199,6.623,9.174,7.999,5.999,4.435,5.774,7.205,0.007,0.929,-0.381,0.793,2.930,-0.275,53.333,325009.000,1.000
8.441,14.424,7.084,-1.482,-0.548,0.103,-4.318,2.702,0.009,0.931,-0.385,0.824,3.143,-0.275,53.333,325010.000,1.000
3.786,8.718,1.233,-5.616,-4.157,-4.536,-7.779,-1.450,0.007,0.931,-0.382,0.885,3.235,-0.183,53.333,325011.000,1.000
6.112,-1.967,-0.987,0.549,0.483,-3.286,-0.505,0.242,0.008,0.931,-0.383,0.885,3.265,-0.153,53.333,325012.000,1.000
10.208,-2.634,2.660,7.604,7.467,2.095,6.848,5.237,0.009,0.929,-0.379,0.793,3.204,-0.122,53.333,325013.000,1.000
9.054,8.254,7.021,5.549,8.461,4.983,4.132,6.995,0.008,0.932,-0.381,0.824,3.204,-0.183,53.333,325014.000,1.000
4.476,17.478,7.486,-1.539,4.856,3.723,-3.606,4.703,0.008,0.930,-0.386,0.854,3.052,-0.214,53.333,325015.000,1.000
4.800,15.496,6.501,-0.789,5.914,4.028,-2.849,4.733,0.007,0.931,-0.383,0.885,3.052,-0.122,53.333,325016.000,1.000
12.388,8.669,9.242,11.006,15.042,10.230,9.086,11.327,0.008,0.933,-0.382,0.854,3.052,-0.122,53.333,325017.000,1.000
18.481,8.579,14.548,21.238,23.268,17.528,18.887,19.302,0.007,0.938,-0.382,0.885,3.143,-0.183,53.333,325018.000,1.000
13.465,14.240,14.654,17.029,19.878,16.840,14.206,19.592,0.006,0.936,-0.382,0.824,3.113,-0.183,53.333,325019.000,1.000
-0.607,12.818,5.185,2.070,6.537,6.634,0.158,10.898,0.009,0.937,-0.382,0.732,3.082,-0.183,53.333,325020.000,1.000
-12.166,-1.874,-8.047,-8.068,-4.264,-4.270,-7.165,1.742,0.010,0.936,-0.380,0.885,3.143,-0.122,53.333,325021.000,1.000
-14.442,-19.122,-15.302,-5.994,-4.771,-7.262,-1.635,-0.191,0.010,0.936,-0.383,0.916,3.113,-0.092,53.333,325022.000,1.000
-12.862,-24.169,-14.359,-0.830,-0.778,-4.023,5.830,2.831,0.010,0.936,-0.382,1.007,3.143,-0.183,53.333,325023.000,1.000
-16.022,-17.047,-12.059,-4.046,-2.236,-2.910,3.240,2.985,0.009,0.935,-0.382,0.946,3.052,-0.153,53.333,325024.000,1.000
-23.355,-11.984,-14.499,-13.165,-9.287,-7.263,-6.044,-1.966,0.010,0.936,-0.382,1.038,3.052,-0.122,53.333,325025.000,1.000
-26.454,-18.217,-19.323,-15.852,-12.954,-11.708,-8.982,-6.234,0.010,0.937,-0.383,1.068,3.143,-0.153,53.333,325026.000,1.000
-21.492,-28.023,-19.973,-7.994,-8.710,-10.749,-2.025,-4.956,0.010,0.936,-0.383,1.129,3.082,-0.183,53.333,325027.000,1.000
-15.033,-28.051,-15.406,-0.110,-3.514,-7.147,3.299,-1.607,0.009,0.932,-0.384,1.160,3.113,-0.122,53.333,325028.000,1.000
-14.933,-18.027,-11.599,-2.916,-6.274,-8.153,-3.576,-3.274,0.011,0.932,-0.386,1.251,3.113,-0.244,53.333,325029.000,1.000
-18.830,-10.811,-12.706,-11.917,-14.875,-14.758,-16.730,-10.179,0.009,0.933,-0.384,1.251,3.204,-0.122,53.333,325030.000,1.000
-16.793,-14.235,-14.742,-12.933,-18.316,-19.472,-20.878,-14.484,0.009,0.937,-0.384,1.404,3.143,-0.092,53.333,325031.000,1.000
-5.373,-20.544,-11.336,-1.771,-11.857,-16.545,-12.195,-10.885,0.009,0.936,-0.383,1.434,3.113,-0.031,53.333,325032.000,1.000
6.516,-17.883,-3.457,9.187,-4.186,-10.423,-4.042,-4.372,0.008,0.936,-0.384,1.404,3.143,-0.092,53.333,325033.000,1.000
8.744,-7.330,1.049,7.282,-6.025,-10.159,-9.071,-3.856,0.007,0.935,-0.386,1.434,3.052,-0.092,53.333,325034.000,1.000
3.357,-1.439,-1.866,-3.114,-15.309,-16.932,-21.851,-9.906,0.007,0.933,-0.384,1.434,3.052,-0.061,53.333,325035.000,1.000
2.016,-6.219,-6.206,-6.056,-19.308,-21.829,-25.852,-13.384,0.006,0.930,-0.381,1.526,3.052,-0.061,53.333,325036.000,1.000
10.585,-11.978,-3.362,4.705,-11.384,-17.515,-15.639,-7.400,0.006,0.929,-0.383,1.526,2.899,-0.183,53.333,325037.000,1.000
21.395,-6.378,6.334,17.389,0.148,-8.198,-4.131,3.387,0.007,0.929,-0.384,1.526,2.960,-0.183,53.333,325038.000,1.000
23.488,8.002,13.601,18.011,3.012,-4.246,-5.165,8.689,0.007,0.928,-0.383,1.587,2.960,-0.183,53.333,325039.000,1.000
16.744,16.095,11.879,8.570,-3.249,-8.747,-15.368,5.627,0.008,0.930,-0.381,1.648,2.899,-0.244,53.333,325040.000,1.000
11.095,10.136,5.301,3.255,-7.705,-13.928,-19.640,1.569,0.009,0.931,-0.385,1.709,2.808,-0.244,53.333,325041.000,1.000
12.669,0.153,2.728,8.626,-3.338,-11.784,-12.018,3.568,0.010,0.933,-0.385,1.709,2.808,-0.244,53.333,325042.000,1.000
16.160,0.665,6.175,15.233,3.956,-4.334,-3.122,9.039,0.010,0.934,-0.388,1.709,2.838,-0.244,53.333,325043.000,1.000
13.506,11.521,9.170,11.813,4.615,0.099,-4.419,10.187,0.012,0.934,-0.386,1.678,2.808,-0.153,53.333,325044.000,1.000
6.109,18.729,6.648,1.750,-0.559,-1.192,-11.713,5.492,0.014,0.933,-0.385,1.709,2.869,-0.183,53.333,325045.000,1.000
3.307,13.827,2.304,-1.342,-1.382,-1.852,-10.970,2.059,0.013,0.933,-0.387,1.678,2.869,-0.214,53.333,325046.000,1.000
9.370,5.343,3.390,7.384,7.291,4.135,1.853,5.785,0.013,0.931,-0.383,1.801,2.899,-0.153,53.333,325047.000,1.000
17.190,6.744,10.349,16.925,17.957,13.550,14.692,13.108,0.010,0.932,-0.388,1.740,2.899,-0.122,53.333,325048.000,1.000
17.696,17.625,15.775,15.265,20.365,18.030,15.627,15.804,0.009,0.932,-0.386,1.709,2.960,-0.122,53.333,325049.000,1.000
12.283,24.286,14.397,5.829,15.425,15.610,9.178,12.316,0.007,0.932,-0.384,1.801,2.899,-0.183,53.333,325050.000,1.000
10.823,18.658,10.206,2.706,13.797,13.544,9.964,9.841,0.007,0.933,-0.388,1.892,2.960,-0.214,53.333,325051.000,1.000
17.736,9.228,10.707,11.022,20.900,18.215,22.226,14.082,0.010,0.932,-0.387,1.923,3.021,-0.244,53.333,325052.000,1.000
25.725,9.231,16.531,19.880,29.314,26.275,33.743,21.145,0.009,0.929,-0.385,1.831,2.991,-0.305,53.333,325053.000,1.000
25.706,18.373,20.573,17.473,28.985,29.169,32.458,22.775,0.007,0.932,-0.387,1.892,3.052,-0.275,53.333,325054.000,1.000
18.588,22.836,17.256,6.875,20.590,24.275,22.344,17.149,0.009,0.933,-0.388,1.770,2.930,-0.275,53.333,325055.000,1.000
13.157,13.880,9.540,1.139,13.970,17.695,17.053,10.686,0.010,0.933,-0.388,1.770,2.960,-0.397,53.333,325056.000,1.000
13.709,-0.067,4.651,5.124,14.437,15.529,20.791,9.027,0.009,0.934,-0.389,1.678,3.021,-0.397,53.333,325057.000,1.000
14.421,-4.762,4.373,9.027,15.752,15.596,22.807,9.563,0.011,0.935,-0.385,1.740,3.052,-0.458,53.333,325058.000,1.000
8.131,0.738,3.307,2.566,9.441,11.053,13.063,5.762,0.012,0.933,-0.388,1.678,3.052,-0.458,53.333,325059.000,1.000
-2.599,3.725,-2.570,-9.871,-2.475,0.927,-2.684,-2.790,0.013,0.934,-0.390,1.617,3.082,-0.519,53.333,325060.000,1.000
-8.076,-3.856,-9.584,-14.685,-9.585,-7.649,-9.940,-9.166,0.013,0.934,-0.390,1.587,3.204,-0.488,53.333,325061.000,1.000
-4.647,-14.274,-11.446,-7.968,-7.538,-9.104,-5.411,-8.772,0.014,0.934,-0.390,1.556,3.235,-0.458,53.333,325062.000,1.000
0.193,-14.975,-8.168,-1.162,-4.282,-7.153,-1.724,-5.997,0.013,0.934,-0.389,1.678,3.204,-0.458,53.333,325063.000,1.000
-1.660,-5.954,-5.972,-5.118,-8.926,-9.411,-9.831,-8.095,0.014,0.935,-0.385,1.678,3.296,-0.397,53.333,325064.000,1.000
-7.509,0.256,-8.491,-14.775,-18.809,-16.562,-23.550,-14.854,0.014,0.936,-0.385,1.648,3.387,-0.488,53.333,325065.000,1.000
-7.426,-4.057,-11.461,-15.710,-22.723,-21.102,-27.650,-18.364,0.014,0.936,-0.386,1.556,3.418,-0.519,53.333,325066.000,1.000
1.958,-11.029,-8.401,-3.779,-15.973,-17.434,-18.435,-13.441,0.010,0.934,-0.386,1.526,3.357,-0.458,53.333,325067.000,1.000
11.954,-8.497,-0.087,8.624,-7.093,-9.890,-8.959,-4.994,0.011,0.934,-0.386,1.526,3.448,-0.549,53.333,325068.000,1.000
12.365,2.246,5.344,8.429,-6.927,-7.581,-11.629,-2.129,0.012,0.934,-0.390,1.404,3.418,-0.580,53.333,325069.000,1.000
4.238,7.378,2.530,-1.309,-14.525,-12.579,-21.663,-6.497,0.010,0.936,-0.387,1.465,3.418,-0.549,53.333,325070.000,1.000
-2.428,-0.836,-4.430,-6.481,-19.012,-17.496,-24.013,-10.643,0.010,0.937,-0.386,1.404,3.418,-0.458,53.333,325071.000,1.000
-2.692,-13.409,-7.890,-1.666,-14.828,-15.805,-14.216,-8.509,0.010,0.936,-0.386,1.373,3.418,-0.519,53.333,325072.000,1.000
-2.818,-16.591,-6.806,2.941,-9.127,-10.575,-4.321,-3.448,0.010,0.934,-0.387,1.251,3.540,-0.610,53.333,325073.000,1.000
-10.165,-9.869,-7.130,-3.167,-11.120,-9.533,-5.763,-2.798,0.008,0.934,-0.387,1.221,3.448,-0.641,53.333,325074.000,1.000
-21.285,-5.436,-12.306,-14.959,-18.412,-13.573,-13.149,-6.907,0.010,0.934,-0.385,1.129,3.479,-0.549,53.333,325075.000,1.000
-25.362,-10.420,-17.515,-17.933,-19.684,-15.033,-11.671,-8.232,0.010,0.935,-0.384,1.129,3.418,-0.580,53.333,325076.000,1.000
-18.607,-16.703,-15.898,-7.969,-10.176,-8.232,2.093,-1.884,0.010,0.936,-0.385,1.068,3.296,-0.549,53.333,325077.000,1.000
-9.713,-12.395,-8.168,2.582,1.484,2.364,14.951,7.147,0.008,0.938,-0.385,0.916,3.448,-0.488,53.333,325078.000,1.000
-8.741,0.899,-2.295,1.179,4.560,7.657,14.694,10.211,0.010,0.940,-0.384,0.854,3.418,-0.519,53.333,325079.000,1.000
-14.199,9.354,-3.244,-8.209,0.360,5.823,6.483,6.449,0.010,0.936,-0.385,0.885,3.235,-0.458,53.333,325080.000,1.000
-15.554,5.466,-6.424,-10.587,0.157,4.539,5.718,4.006,0.010,0.933,-0.384,0.916,3.265,-0.427,53.333,325081.000,1.000
-8.057,-2.004,-4.277,-0.586,9.307,10.032,16.666,8.785,0.011,0.932,-0.388,0.916,3.296,-0.458,53.333,325082.000,1.000
0.257,-0.648,2.816,9.799,19.190,17.770,26.010,15.839,0.010,0.934,-0.388,0.854,3.235,-0.366,53.333,325083.000,1.000
-0.661,8.146,6.713,7.362,18.502,18.101,20.651,15.686,0.011,0.932,-0.386,0.885,3.204,-0.427,53.333,325084.000,1.000
-9.171,11.004,2.553,-4.540,8.392,9.174,5.342,6.924,0.010,0.932,-0.384,0.946,3.235,-0.427,53.333,325085.000,1.000
-13.965,1.276,-4.456,-10.858,0.794,-0.401,-3.839,-1.959,0.009,0.933,-0.383,0.916,3.265,-0.458,53.333,325086.000,1.000
-8.607,-10.724,-5.386,-4.986,2.865,-2.270,-0.537,-3.407,0.008,0.932,-0.384,0.946,3.204,-0.244,53.333,325087.000,1.000
0.994,-10.493,1.354,3.446,8.721,1.989,5.070,0.436,0.009,0.928,-0.387,0.977,3.143,-0.336,53.333,325088.000,1.000
5.708,1.825,8.779,3.096,9.026,4.644,2.124,2.246,0.011,0.927,-0.385,1.007,3.143,-0.427,53.333,325089.000,1.000
5.632,11.925,10.942,-3.114,4.338,2.943,-5.283,0.174,0.010,0.929,-0.386,1.099,3.143,-0.397,53.333,325090.000,1.000
8.475,10.196,9.979,-2.940,3.520,1.991,-4.618,-0.396,0.010,0.929,-0.384,1.160,3.113,-0.305,53.333,325091.000,1.000
17.090,3.644,11.703,6.886,10.164,6.215,6.202,4.295,0.010,0.930,-0.385,1.343,2.991,-0.458,53.333,325092.000,1.000
24.119,4.877,16.365,14.855,16.333,11.828,14.250,9.722,0.009,0.929,-0.385,1.312,2.960,-0.427,53.333,325093.000,1.000
21.175,13.419,17.448,9.560,12.473,10.883,8.010,8.083,0.011,0.930,-0.384,1.404,2.960,-0.488,53.333,325094.000,1.000
10.297,15.769,10.611,-4.703,0.401,1.929,-7.132,-1.241,0.013,0.930,-0.385,1.495,2.869,-0.488,53.333,325095.000,1.000
1.912,4.386,0.426,-13.069,-8.481,-7.315,-15.499,-10.028,0.012,0.931,-0.384,1.556,2.991,-0.458,53.333,325096.000,1.000
1.505,-10.992,-4.956,-9.483,-7.852,-9.523,-11.335,-11.308,0.012,0.930,-0.384,1.617,2.991,-0.519,53.333,325097.000,1.000
3.100,-15.560,-4.070,-3.912,-4.056,-6.651,-5.163,-7.711,0.013,0.930,-0.381,1.740,2.991,-0.427,53.333,325098.000,1.000
-1.475,-8.501,-3.226,-7.633,-6.288,-6.066,-7.874,-6.782,0.014,0.930,-0.385,1.740,2.869,-0.397,53.333,325099.000,1.000
-10.695,-3.034,-7.229,-17.262,-13.325,-9.671,-15.099,-10.064,0.011,0.931,-0.383,1.801,2.930,-0.427,53.333,325100.000,1.000
-15.525,-7.837,-12.753,-19.769,-15.341,-11.384,-13.685,-11.271,0.013,0.932,-0.380,1.770,3.021,-0.488,53.333,325101.000,1.000
-12.557,-15.543,-13.417,-11.278,-8.162,-6.336,-1.066,-5.866,0.013,0.932,-0.383,1.831,3.113,-0.488,53.333,325102.000,1.000
-9.639,-13.999,-9.425,-3.383,-0.067,1.212,9.706,1.504,0.012,0.933,-0.384,1.892,3.235,-0.519,53.333,325103.000,1.000
-15.820,-4.227,-8.138,-7.926,-1.362,2.643,6.784,2.388,0.010,0.933,-0.386,1.953,3.174,-0.427,53.333,325104.000,1.000
-28.796,0.644,-14.014,-20.640,-10.362,-3.285,-4.255,-4.009,0.011,0.933,-0.386,1.892,3.143,-0.458,53.333,325105.000,1.000
-36.821,-5.589,-21.427,-25.925,-14.762,-7.634,-6.979,-8.817,0.012,0.933,-0.385,1.892,3.174,-0.458,53.333,325106.000,1.000
-33.263,-12.327,-21.127,-17.030,-7.402,-2.275,4.539,-4.525,0.014,0.931,-0.386,1.831,3.113,-0.458,53.333,325107.000,1.000
-24.673,-6.122,-12.292,-4.642,4.491,9.544,18.164,5.340,0.011,0.933,-0.386,1.862,3.265,-0.488,53.333,325108.000,1.000
-21.438,10.687,-3.546,-2.036,9.315,17.607,20.379,11.217,0.013,0.933,-0.384,1.923,3.204,-0.488,53.333,325109.000,1.000
-24.228,22.094,-1.851,-7.572,6.229,17.756,13.918,9.967,0.013,0.931,-0.384,1.984,3.235,-0.458,53.333,325110.000,1.000
-25.045,18.251,-4.852,-8.866,4.307,15.422,11.883,7.319,0.012,0.932,-0.384,1.892,3.265,-0.397,53.333,325111.000,1.000
-20.239,6.950,-6.045,-1.733,8.100,16.116,17.809,8.101,0.013,0.934,-0.386,1.831,3.326,-0.458,53.333,325112.000,1.000
-16.252,2.243,-4.415,3.444,10.774,17.254,20.340,8.942,0.015,0.934,-0.384,1.862,3.296,-0.488,53.333,325113.000,1.000
-20.174,5.829,-5.332,-3.381,4.175,12.428,9.665,3.417,0.015,0.935,-0.387,1.801,3.326,-0.427,53.333,325114.000,1.000
-28.730,6.334,-11.944,-16.854,-8.615,1.682,-7.537,-7.899,0.014,0.933,-0.386,1.770,3.387,-0.458,53.333,325115.000,1.000
-31.420,-3.062,-19.299,-22.194,-15.913,-6.792,-15.607,-16.627,0.013,0.932,-0.387,1.740,3.479,-0.549,53.333,325116.000,1.000
-24.063,-13.662,-19.823,-14.472,-12.160,-6.437,-10.067,-16.692,0.013,0.930,-0.387,1.709,3.418,-0.549,53.333,325117.000,1.000
-14.318,-12.628,-13.075,-4.921,-4.847,-0.552,-3.005,-11.864,0.015,0.931,-0.387,1.709,3.448,-0.458,53.333,325118.000,1.000
-11.402,-0.898,-6.291,-5.450,-4.094,2.358,-6.205,-10.321,0.014,0.932,-0.386,1.678,3.418,-0.549,53.333,325119.000,1.000
-13.810,7.594,-4.720,-12.470,-9.023,-0.053,-15.145,-13.568,0.013,0.934,-0.385,1.740,3.357,-0.580,53.333,325120.000,1.000
-11.774,4.654,-4.907,-12.196,-9.503,-1.371,-15.727,-14.815,0.013,0.935,-0.386,1.678,3.357,-0.580,53.333,325121.000,1.000
-1.291,-1.498,-0.290,-0.271,-0.886,3.778,-4.462,-9.062,0.013,0.933,-0.388,1.617,3.296,-0.610,53.333,325122.000,1.000
9.439,1.460,8.586,11.312,8.570,11.079,5.761,-0.995,0.011,0.933,-0.388,1.587,3.326,-0.671,53.333,325123.000,1.000
10.406,12.000,13.756,9.849,8.201,11.452,2.637,0.569,0.013,0.934,-0.386,1.434,3.326,-0.702,53.333,325124.000,1.000
3.239,16.502,10.440,-0.934,-0.581,3.379,-8.738,-5.431,0.011,0.933,-0.385,1.495,3.357,-0.610,53.333,325125.000,1.000
-0.632,8.507,4.117,-5.679,-5.629,-4.165,-12.232,-10.304,0.012,0.934,-0.387,1.587,3.387,-0.519,53.333,325126.000,1.000
5.208,-1.310,4.002,2.277,0.306,-2.617,-1.822,-6.658,0.012,0.933,-0.386,1.526,3.357,-0.732,53.333,325127.000,1.000
14.430,1.272,11.380,12.690,10.686,5.815,11.125,2.295,0.013,0.933,-0.386,1.465,3.387,-0.671,53.333,325128.000,1.000
17.328,14.929,18.255,12.998,14.643,11.855,13.838,7.430,0.013,0.934,-0.385,1.373,3.387,-0.793,53.333,325129.000,1.000
13.897,24.200,17.870,5.167,11.407,11.463,9.022,5.675,0.013,0.935,-0.383,1.404,3.387,-0.763,53.333,325130.000,1.000
12.939,19.860,13.073,2.040,10.269,10.250,9.867,3.253,0.014,0.936,-0.384,1.343,3.235,-0.702,53.333,325131.000,1.000
18.859,10.534,11.434,8.639,16.514,14.377,20.508,6.116,0.014,0.933,-0.385,1.221,3.235,-0.671,53.333,325132.000,1.000
24.834,9.958,14.213,14.641,23.222,20.979,29.385,11.118,0.015,0.934,-0.385,1.129,3.143,-0.732,53.333,325133.000,1.000
22.220,18.002,14.861,8.881,20.806,21.952,25.205,10.513,0.010,0.935,-0.385,1.221,3.174,-0.702,53.333,325134.000,1.000
12.811,21.298,8.626,-4.560,10.727,15.498,13.028,3.105,0.010,0.933,-0.387,1.190,3.052,-0.732,53.333,325135.000,1.000
6.445,11.928,-0.646,-11.575,3.743,8.791,7.552,-3.964,0.010,0.933,-0.385,1.160,3.021,-0.763,53.333,325136.000,1.000
7.355,-1.566,-5.831,-7.407,5.142,8.108,12.921,-5.140,0.012,0.930,-0.387,1.160,3.082,-0.793,53.333,325137.000,1.000
8.588,-5.631,-6.097,-2.995,7.787,10.537,17.375,-3.910,0.012,0.931,-0.390,1.190,3.021,-0.824,53.333,325138.000,1.000
2.508,0.470,-7.182,-9.197,2.832,8.910,10.339,-7.191,0.010,0.932,-0.388,1.251,3.082,-0.793,53.333,325139.000,1.000
-7.412,4.756,-12.229,-20.882,-6.984,2.765,-1.983,-14.680,0.008,0.932,-0.387,1.221,2.960,-0.671,53.333,325140.000,1.000
-10.364,-0.098,-16.414,-23.292,-10.305,-0.311,-4.502,-18.408,0.010,0.933,-0.388,1.251,3.021,-0.702,53.333,325141.000,1.000
-2.715,-6.406,-13.253,-12.152,-2.558,4.942,6.052,-13.425,0.010,0.933,-0.384,1.251,2.899,-0.671,53.333,325142.000,1.000
6.419,-2.811,-4.252,-0.051,7.190,13.435,15.948,-5.162,0.010,0.933,-0.387,1.343,2.838,-0.610,53.333,325143.000,1.000
6.263,8.417,1.516,-0.348,7.343,15.228,12.009,-3.277,0.010,0.934,-0.388,1.190,2.777,-0.580,53.333,325144.000,1.000
-2.318,12.948,-1.716,-10.098,-1.656,7.855,-1.515,-9.689,0.011,0.932,-0.386,1.129,2.808,-0.549,53.333,325145.000,1.000
-8.546,3.663,-8.995,-14.580,-8.412,-0.586,-9.086,-16.336,0.012,0.933,-0.390,1.099,2.777,-0.580,53.333,325146.000,1.000
