EEG 1,EEG 2,EEG 3,EEG 4,EEG 5,EEG 6,EEG 7,EEG 8,Accelerometer X,Accelerometer Y,Accelerometer Z,Gyroscope X,Gyroscope Y,Gyroscope Z,Battery Level,Counter,Validation Indicator
12.963,-2.938,2.929,4.542,-0.886,-3.325,0.517,0.323,-0.018,0.927,-0.393,0.366,1.007,-1.343,60.000,265953.000,1.000
13.952,-3.763,5.203,8.675,2.244,-1.074,4.610,3.413,-0.018,0.929,-0.394,0.427,1.007,-1.465,60.000,265954.000,1.000
5.701,4.530,4.155,-0.935,-4.131,-5.254,-5.398,0.107,-0.016,0.929,-0.394,0.427,1.099,-1.343,60.000,265955.000,1.000
-5.942,5.641,-3.263,-14.803,-14.384,-14.221,-18.551,-7.825,-0.018,0.930,-0.393,0.458,1.282,-1.251,60.000,265956.000,1.000
-10.080,-6.344,-10.760,-17.498,-16.931,-19.157,-19.428,-12.043,-0.018,0.926,-0.392,0.488,1.312,-1.343,60.000,265957.000,1.000
-5.385,-18.358,-10.971,-8.404,-10.013,-15.851,-9.030,-8.698,-0.018,0.923,-0.392,0.519,1.434,-1.282,60.000,265958.000,1.000
-1.294,-15.896,-5.234,-1.906,-3.952,-10.195,-3.085,-3.314,-0.017,0.921,-0.395,0.702,1.526,-1.282,60.000,265959.000,1.000
-4.539,-2.792,-1.660,-7.219,-6.952,-10.051,-10.350,-3.067,-0.016,0.920,-0.395,0.793,1.648,-1.282,60.000,265960.000,1.000
-9.950,3.912,-4.239,-15.929,-14.074,-14.769,-20.866,-7.204,-0.015,0.921,-0.394,0.946,1.831,-1.221,60.000,265961.000,1.000
-8.086,-2.930,-7.741,-14.214,-14.369,-16.517,-20.015,-8.521,-0.015,0.920,-0.396,1.068,2.014,-1.251,60.000,265962.000,1.000
1.056,-11.195,-5.272,-2.537,-6.184,-11.376,-8.758,-3.676,-0.016,0.922,-0.397,1.221,2.075,-1.221,60.000,265963.000,1.000
7.388,-6.763,1.939,4.612,0.478,-4.896,-2.151,2.003,-0.017,0.926,-0.396,1.312,2.228,-1.373,60.000,265964.000,1.000
4.136,6.465,5.951,-1.463,-2.349,-4.549,-8.439,1.754,-0.019,0.929,-0.394,1.282,2.380,-1.465,60.000,265965.000,1.000
-3.149,11.619,2.773,-11.774,-9.804,-9.521,-17.795,-3.452,-0.020,0.930,-0.398,1.343,2.441,-1.373,60.000,265966.000,1.000
-4.134,2.268,-2.130,-11.906,-10.918,-11.724,-16.006,-6.241,-0.020,0.925,-0.398,1.312,2.655,-1.434,60.000,265967.000,1.000
2.606,-8.197,-1.047,-1.458,-3.460,-6.665,-4.086,-2.719,-0.019,0.922,-0.397,1.373,2.716,-1.465,60.000,265968.000,1.000
8.127,-4.697,5.616,5.780,3.244,0.439,3.094,2.424,-0.020,0.923,-0.397,1.495,2.777,-1.465,60.000,265969.000,1.000
5.591,8.733,9.930,0.962,1.239,1.681,-2.802,2.499,-0.020,0.924,-0.396,1.587,2.808,-1.434,60.000,265970.000,1.000
-0.473,14.333,7.228,-7.756,-5.252,-2.942,-12.276,-1.999,-0.021,0.923,-0.400,1.740,2.960,-1.434,60.000,265971.000,1.000
-0.912,4.687,2.036,-6.974,-6.237,-6.042,-11.519,-4.444,-0.023,0.924,-0.395,1.678,3.052,-1.404,60.000,265972.000,1.000
4.782,-7.597,1.142,2.714,-0.491,-3.558,-1.913,-1.853,-0.022,0.925,-0.397,1.770,3.082,-1.465,60.000,265973.000,1.000
7.465,-7.365,3.991,7.123,2.532,-0.328,1.904,0.649,-0.025,0.929,-0.398,1.770,3.204,-1.587,60.000,265974.000,1.000
1.236,2.810,3.943,-1.714,-3.712,-2.724,-7.150,-2.808,-0.026,0.931,-0.396,1.617,3.265,-1.556,60.000,265975.000,1.000
-7.836,7.105,-1.692,-13.929,-12.907,-8.981,-18.053,-10.025,-0.027,0.933,-0.396,1.556,3.174,-1.617,60.000,265976.000,1.000
-9.422,-1.002,-7.104,-14.738,-13.751,-10.991,-16.285,-12.965,-0.025,0.936,-0.396,1.465,3.204,-1.587,60.000,265977.000,1.000
-2.711,-9.508,-5.553,-4.362,-5.167,-5.343,-3.728,-8.342,-0.025,0.938,-0.396,1.251,3.174,-1.587,60.000,265978.000,1.000
2.418,-4.940,1.069,2.249,1.890,1.494,3.506,-2.252,-0.025,0.944,-0.398,1.160,3.326,-1.678,60.000,265979.000,1.000
-1.461,8.103,4.117,-4.392,-1.221,1.322,-3.376,-2.346,-0.025,0.947,-0.395,0.916,3.387,-1.556,60.000,265980.000,1.000
-9.548,12.535,-0.552,-15.697,-9.648,-5.099,-14.280,-7.917,-0.026,0.949,-0.395,0.610,3.540,-1.587,60.000,265981.000,1.000
-11.777,2.000,-7.183,-17.141,-12.138,-9.406,-14.436,-11.285,-0.023,0.949,-0.396,0.244,3.479,-1.495,60.000,265982.000,1.000
-6.788,-10.234,-7.916,-8.186,-6.402,-7.035,-4.611,-8.299,-0.022,0.948,-0.397,0.000,3.571,-1.404,60.000,265983.000,1.000
-3.428,-9.065,-3.029,-2.420,-1.629,-2.997,0.517,-3.506,-0.022,0.950,-0.396,-0.244,3.754,-1.465,60.000,265984.000,1.000
-7.906,2.219,0.141,-8.070,-5.120,-4.407,-6.809,-3.242,-0.023,0.951,-0.395,-0.580,3.937,-1.282,60.000,265985.000,1.000
-14.655,7.058,-2.169,-16.114,-11.753,-10.233,-16.364,-6.463,-0.023,0.949,-0.392,-0.916,3.876,-1.221,60.000,265986.000,1.000
-13.779,-1.187,-4.925,-12.718,-11.054,-12.561,-14.040,-6.226,-0.021,0.947,-0.393,-1.129,4.089,-1.221,60.000,265987.000,1.000
-5.049,-10.292,-1.901,0.971,-2.226,-7.790,-1.785,0.040,-0.020,0.945,-0.393,-1.373,4.120,-1.129,60.000,265988.000,1.000
1.088,-6.640,4.771,9.413,4.041,-1.966,4.528,6.071,-0.020,0.943,-0.389,-1.404,4.120,-0.946,60.000,265989.000,1.000
-2.763,5.512,6.839,3.337,-0.054,-2.551,-3.255,4.799,-0.018,0.943,-0.387,-1.556,4.456,-0.977,60.000,265990.000,1.000
-11.275,9.760,1.017,-7.957,-8.707,-8.041,-14.307,-2.099,-0.020,0.942,-0.385,-1.801,4.486,-0.702,60.000,265991.000,1.000
-13.979,0.348,-6.340,-9.549,-10.302,-9.859,-13.592,-6.345,-0.021,0.940,-0.388,-1.984,4.486,-0.671,60.000,265992.000,1.000
-9.431,-9.416,-7.340,-1.040,-2.962,-3.919,-2.257,-3.911,-0.022,0.939,-0.387,-2.136,4.547,-0.549,60.000,265993.000,1.000
-6.377,-4.925,-2.460,3.752,3.445,4.027,4.433,0.236,-0.022,0.937,-0.386,-2.319,4.700,-0.519,60.000,265994.000,1.000
-10.898,9.776,0.784,-3.487,1.126,6.239,-1.699,-0.522,-0.023,0.935,-0.386,-2.441,4.730,-0.366,60.000,265995.000,1.000
-17.872,17.080,-1.885,-14.027,-5.278,3.042,-10.863,-5.466,-0.023,0.935,-0.385,-2.472,4.761,-0.336,60.000,265996.000,1.000
-18.261,9.364,-6.089,-14.319,-5.641,1.696,-9.259,-7.867,-0.024,0.933,-0.386,-2.533,4.852,-0.244,60.000,265997.000,1.000
-11.901,-1.110,-5.460,-4.947,1.222,5.875,1.561,-4.599,-0.023,0.932,-0.387,-2.533,4.974,-0.122,60.000,265998.000,1.000
-8.126,0.345,-1.102,-0.158,5.530,10.208,6.551,-0.797,-0.023,0.931,-0.387,-2.533,4.913,-0.153,60.000,265999.000,1.000
-12.950,10.594,-0.219,-8.163,0.110,7.823,-1.910,-2.711,-0.023,0.926,-0.384,-2.563,4.974,-0.183,60.000,266000.000,1.000
-20.230,13.914,-5.474,-19.169,-8.980,0.655,-12.798,-8.408,-0.024,0.924,-0.382,-2.411,5.035,-0.092,60.000,266001.000,1.000
-19.528,4.687,-10.452,-18.201,-10.074,-2.392,-11.023,-9.776,-0.022,0.924,-0.385,-2.350,5.035,0.000,60.000,266002.000,1.000
-10.437,-4.670,-8.238,-5.599,-1.899,2.381,1.697,-3.705,-0.021,0.925,-0.385,-2.197,5.127,0.000,60.000,266003.000,1.000
-3.501,-1.352,-1.199,3.222,4.339,7.932,8.755,3.190,-0.022,0.923,-0.381,-2.045,5.096,0.061,60.000,266004.000,1.000
-6.105,9.597,1.961,-1.318,0.157,5.758,1.171,3.268,-0.021,0.926,-0.382,-1.953,5.249,0.092,60.000,266005.000,1.000
-12.712,11.834,-2.119,-10.277,-8.702,-2.732,-10.368,-2.003,-0.022,0.927,-0.383,-1.801,5.157,0.122,60.000,266006.000,1.000
-12.754,0.128,-7.025,-9.080,-10.337,-8.358,-10.504,-4.417,-0.022,0.926,-0.382,-1.740,5.249,0.244,60.000,266007.000,1.000
-5.147,-12.067,-5.312,2.094,-3.004,-6.585,-0.288,-0.393,-0.022,0.928,-0.382,-1.678,5.249,0.305,60.000,266008.000,1.000
0.473,-10.574,1.502,8.688,2.794,-3.126,4.757,4.360,-0.022,0.927,-0.382,-1.556,5.219,0.397,60.000,266009.000,1.000
-2.882,0.305,5.019,2.069,-1.129,-5.529,-3.612,2.900,-0.019,0.924,-0.380,-1.404,5.188,0.366,60.000,266010.000,1.000
-10.154,3.713,1.084,-8.566,-9.690,-12.678,-15.117,-3.521,-0.020,0.924,-0.383,-1.190,5.249,0.275,60.000,266011.000,1.000
-11.511,-6.666,-5.014,-8.947,-11.909,-16.450,-15.424,-7.385,-0.020,0.927,-0.381,-1.068,5.280,0.244,60.000,266012.000,1.000
-6.070,-18.014,-6.079,0.615,-6.098,-12.959,-5.976,-5.258,-0.021,0.929,-0.383,-0.977,5.157,0.214,60.000,266013.000,1.000
-3.103,-16.113,-2.852,5.737,-1.931,-7.875,-1.802,-2.326,-0.020,0.932,-0.379,-0.854,5.127,0.214,60.000,266014.000,1.000
-9.064,-4.791,-2.562,-2.122,-6.611,-8.411,-10.392,-4.888,-0.020,0.932,-0.380,-0.824,5.188,0.275,60.000,266015.000,1.000
-18.406,-0.228,-8.274,-13.695,-14.339,-13.003,-20.832,-11.139,-0.018,0.933,-0.379,-0.793,5.188,0.244,60.000,266016.000,1.000
-20.944,-8.261,-14.044,-14.420,-13.943,-13.184,-18.443,-13.158,-0.019,0.933,-0.381,-0.702,5.127,0.153,60.000,266017.000,1.000
-15.783,-16.348,-12.984,-4.459,-4.438,-5.462,-5.042,-7.717,-0.020,0.932,-0.381,-0.702,5.157,0.183,60.000,266018.000,1.000
-12.621,-11.418,-7.142,1.400,2.965,3.169,3.150,-1.081,-0.020,0.935,-0.377,-0.641,4.944,0.031,60.000,266019.000,1.000
-18.348,1.330,-5.184,-5.916,-0.408,4.045,-2.619,-0.845,-0.020,0.937,-0.378,-0.549,5.127,0.061,60.000,266020.000,1.000
-27.471,4.973,-10.845,-17.322,-9.303,-1.980,-12.068,-5.949,-0.023,0.937,-0.380,-0.549,5.096,-0.031,60.000,266021.000,1.000
-29.845,-6.167,-18.124,-18.425,-12.145,-6.296,-10.603,-8.680,-0.021,0.934,-0.379,-0.610,4.944,-0.092,60.000,266022.000,1.000
-24.772,-18.570,-19.548,-9.540,-6.884,-4.450,0.334,-5.523,-0.020,0.931,-0.378,-0.610,4.913,-0.122,60.000,266023.000,1.000
-21.548,-17.414,-15.802,-4.838,-3.006,-1.505,5.687,-1.578,-0.020,0.933,-0.378,-0.488,4.730,-0.122,60.000,266024.000,1.000
-26.069,-6.131,-13.904,-12.139,-7.467,-3.995,-1.798,-2.876,-0.021,0.933,-0.378,-0.336,4.730,-0.183,60.000,266025.000,1.000
-32.575,-1.326,-17.169,-21.849,-14.768,-10.379,-11.393,-7.808,-0.022,0.934,-0.378,-0.336,4.730,-0.305,60.000,266026.000,1.000
-31.802,-10.029,-20.873,-20.339,-14.882,-13.275,-9.547,-9.560,-0.023,0.934,-0.376,-0.397,4.700,-0.397,60.000,266027.000,1.000
-23.933,-20.277,-19.188,-9.010,-7.603,-9.987,0.932,-5.872,-0.023,0.933,-0.376,-0.427,4.547,-0.488,60.000,266028.000,1.000
-18.460,-17.934,-13.602,-2.575,-3.190,-6.554,4.443,-2.453,-0.022,0.932,-0.375,-0.366,4.486,-0.366,60.000,266029.000,1.000
-21.070,-6.232,-10.895,-8.793,-8.168,-9.411,-5.772,-5.088,-0.020,0.931,-0.379,-0.275,4.456,-0.427,60.000,266030.000,1.000
-25.428,-0.754,-13.227,-17.399,-15.707,-15.927,-17.591,-11.058,-0.020,0.930,-0.378,-0.153,4.272,-0.488,60.000,266031.000,1.000
-21.560,-7.302,-14.472,-13.813,-14.295,-17.280,-15.847,-12.108,-0.018,0.932,-0.379,-0.061,4.272,-0.458,60.000,266032.000,1.000
-9.856,-13.936,-8.669,0.679,-3.519,-10.408,-2.934,-5.596,-0.019,0.933,-0.376,0.153,4.333,-0.519,60.000,266033.000,1.000
-1.326,-8.191,0.941,10.010,4.710,-2.693,4.124,1.388,-0.020,0.932,-0.377,0.183,4.181,-0.610,60.000,266034.000,1.000
-3.396,4.823,5.235,4.533,1.640,-2.535,-3.530,1.009,-0.021,0.930,-0.380,0.214,4.059,-0.641,60.000,266035.000,1.000
-10.503,8.871,0.837,-6.506,-6.988,-8.369,-14.911,-5.185,-0.023,0.929,-0.381,0.275,3.998,-0.549,60.000,266036.000,1.000
-12.291,-1.262,-5.702,-8.157,-9.148,-11.058,-14.495,-8.725,-0.022,0.930,-0.379,0.427,3.906,-0.580,60.000,266037.000,1.000
-7.891,-12.463,-6.820,-0.288,-2.916,-6.341,-3.361,-5.782,-0.023,0.929,-0.377,0.458,3.845,-0.824,60.000,266038.000,1.000
-6.401,-10.920,-3.612,3.039,1.589,-0.165,2.970,-1.806,-0.025,0.928,-0.377,0.549,3.540,-0.916,60.000,266039.000,1.000
-13.214,-0.597,-3.342,-5.925,-3.025,0.154,-3.395,-3.219,-0.024,0.928,-0.381,0.671,3.448,-1.068,60.000,266040.000,1.000
-21.646,2.629,-8.750,-17.163,-10.820,-3.747,-11.714,-8.161,-0.022,0.929,-0.377,0.916,3.326,-1.038,60.000,266041.000,1.000
-21.783,-7.041,-14.122,-16.555,-10.803,-3.829,-7.861,-9.176,-0.022,0.933,-0.373,0.916,3.174,-1.068,60.000,266042.000,1.000
-14.321,-17.418,-13.322,-5.592,-2.376,2.726,5.636,-3.872,-0.022,0.932,-0.377,0.946,3.082,-1.099,60.000,266043.000,1.000
-10.028,-15.270,-8.406,0.411,3.704,9.215,12.829,1.501,-0.024,0.933,-0.377,0.916,2.838,-1.190,60.000,266044.000,1.000
-15.397,-4.730,-6.870,-6.830,0.122,8.388,6.303,0.514,-0.024,0.934,-0.378,1.038,2.747,-1.251,60.000,266045.000,1.000
-23.971,-1.617,-11.244,-17.290,-6.904,2.356,-2.560,-4.587,-0.022,0.930,-0.376,1.038,2.625,-1.190,60.000,266046.000,1.000
-24.866,-11.220,-15.196,-16.191,-6.003,-0.031,0.887,-5.688,-0.022,0.930,-0.376,1.038,2.502,-1.190,60.000,266047.000,1.000
-17.009,-20.492,-11.878,-3.984,3.821,4.991,14.421,0.283,-0.022,0.931,-0.378,1.190,2.502,-1.129,60.000,266048.000,1.000
-10.004,-15.857,-3.359,4.423,11.683,11.005,21.773,7.076,-0.021,0.930,-0.379,1.312,2.319,-1.099,60.000,266049.000,1.000
-10.688,-2.059,1.981,0.104,9.512,10.103,14.662,7.430,-0.021,0.930,-0.377,1.251,2.319,-1.190,60.000,266050.000,1.000
-13.929,4.071,0.609,-7.913,2.710,3.477,3.716,2.594,-0.020,0.930,-0.379,1.434,2.197,-1.221,60.000,266051.000,1.000
-10.211,-3.482,-1.706,-5.535,2.279,-0.511,3.449,0.139,-0.021,0.930,-0.377,1.465,2.197,-1.221,60.000,266052.000,1.000
0.573,-11.843,1.810,6.585,9.483,2.128,12.243,3.329,-0.021,0.931,-0.377,1.556,2.197,-1.190,60.000,266053.000,1.000
8.215,-7.293,9.219,13.651,14.125,5.702,14.885,6.644,-0.021,0.932,-0.376,1.617,2.197,-1.099,60.000,266054.000,1.000
5.701,5.629,12.188,6.986,8.777,3.054,3.999,3.556,-0.020,0.933,-0.379,1.587,2.075,-1.099,60.000,266055.000,1.000
-1.412,10.348,7.247,-4.075,-0.779,-4.188,-9.355,-4.251,-0.021,0.935,-0.377,1.648,2.167,-1.007,60.000,266056.000,1.000
-2.798,1.088,0.492,-5.110,-3.422,-7.672,-10.698,-9.033,-0.021,0.936,-0.380,1.648,2.045,-0.946,60.000,266057.000,1.000
2.549,-9.108,-0.581,3.667,2.130,-3.768,-1.892,-7.411,-0.020,0.936,-0.379,1.617,2.075,-0.946,60.000,266058.000,1.000
5.477,-6.251,3.190,8.255,5.903,1.475,1.806,-4.545,-0.018,0.938,-0.380,1.526,2.014,-0.916,60.000,266059.000,1.000
-0.006,5.430,4.492,0.860,0.866,0.725,-6.732,-6.357,-0.019,0.941,-0.381,1.587,2.075,-0.702,60.000,266060.000,1.000
-7.848,9.688,0.221,-8.796,-6.919,-4.384,-16.197,-10.682,-0.020,0.940,-0.381,1.526,2.045,-0.671,60.000,266061.000,1.000
-8.049,1.075,-3.996,-6.724,-6.405,-5.401,-12.162,-9.852,-0.019,0.939,-0.381,1.404,1.984,-0.671,60.000,266062.000,1.000
-0.868,-7.663,-2.020,5.518,2.853,0.995,2.700,-1.632,-0.019,0.936,-0.380,1.404,2.106,-0.671,60.000,266063.000,1.000
2.829,-3.759,3.468,12.117,9.321,7.872,11.514,6.711,-0.019,0.936,-0.378,1.404,2.106,-0.519,60.000,266064.000,1.000
-3.901,7.474,4.045,4.158,4.762,7.237,5.688,7.381,-0.019,0.936,-0.382,1.312,2.075,-0.458,60.000,266065.000,1.000
-14.758,9.637,-3.111,-8.515,-4.788,0.856,-3.910,1.938,-0.018,0.936,-0.385,1.312,2.106,-0.458,60.000,266066.000,1.000
-18.762,-2.161,-11.150,-10.846,-7.320,-2.140,-2.246,-1.191,-0.017,0.937,-0.380,1.312,2.289,-0.427,60.000,266067.000,1.000
-14.612,-14.003,-12.189,-2.559,-0.800,2.608,9.491,2.177,-0.017,0.936,-0.380,1.282,2.319,-0.366,60.000,266068.000,1.000
-11.346,-11.487,-7.088,2.644,4.951,9.335,16.326,7.241,-0.017,0.937,-0.379,1.251,2.380,-0.336,60.000,266069.000,1.000
-15.065,1.128,-3.433,-3.084,2.512,10.565,10.901,7.814,-0.017,0.937,-0.382,1.160,2.533,-0.275,60.000,266070.000,1.000
-20.475,6.976,-4.986,-10.729,-2.859,7.260,3.757,5.198,-0.017,0.935,-0.384,1.251,2.655,-0.244,60.000,266071.000,1.000
-18.788,-0.623,-7.158,-7.471,-1.167,6.691,8.142,5.903,-0.015,0.935,-0.382,1.282,2.747,-0.183,60.000,266072.000,1.000
-10.689,-9.868,-4.485,4.500,7.414,11.270,20.560,11.559,-0.015,0.934,-0.383,1.251,2.686,-0.153,60.000,266073.000,1.000
-6.160,-7.720,0.679,9.883,11.738,14.248,24.446,15.464,-0.016,0.935,-0.382,1.221,2.838,-0.183,60.000,266074.000,1.000
-11.056,1.627,0.814,0.808,4.585,8.663,12.436,11.136,-0.015,0.935,-0.381,1.221,2.808,-0.031,60.000,266075.000,1.000
-18.808,2.766,-6.209,-12.157,-7.215,-2.691,-3.321,1.287,-0.016,0.936,-0.379,1.221,2.869,0.061,60.000,266076.000,1.000
-18.860,-8.852,-13.399,-13.876,-11.517,-10.183,-7.140,-5.248,-0.016,0.935,-0.383,1.251,2.930,0.000,60.000,266077.000,1.000
-10.531,-19.569,-13.226,-4.557,-6.585,-9.381,-0.219,-4.661,-0.014,0.934,-0.382,1.221,3.021,0.000,60.000,266078.000,1.000
-3.477,-15.580,-7.139,1.344,-2.521,-6.102,2.204,-2.471,-0.014,0.934,-0.381,1.251,3.052,0.000,60.000,266079.000,1.000
-4.218,-1.732,-3.138,-4.508,-6.762,-7.823,-7.403,-5.362,-0.012,0.935,-0.383,1.251,3.235,-0.031,60.000,266080.000,1.000
-7.414,4.939,-4.777,-12.830,-13.717,-13.337,-18.342,-11.818,-0.014,0.935,-0.385,1.282,3.357,-0.031,60.000,266081.000,1.000
-3.874,-1.773,-6.650,-9.826,-12.668,-14.677,-16.633,-14.256,-0.015,0.933,-0.385,1.312,3.357,-0.061,60.000,266082.000,1.000
6.116,-9.063,-2.269,3.499,-2.718,-8.319,-4.442,-9.448,-0.015,0.933,-0.387,1.251,3.448,-0.122,60.000,266083.000,1.000
12.722,-3.097,6.597,12.563,5.847,-0.167,2.872,-2.855,-0.015,0.933,-0.383,1.373,3.632,-0.092,60.000,266084.000,1.000
9.655,11.401,11.784,8.990,5.351,2.272,-2.262,-1.223,-0.016,0.934,-0.383,1.404,3.601,-0.214,60.000,266085.000,1.000
2.434,17.148,9.293,1.583,0.640,-0.255,-9.595,-3.733,-0.014,0.932,-0.381,1.312,3.571,-0.214,60.000,266086.000,1.000
0.705,7.893,4.344,3.659,1.779,-0.221,-5.555,-3.615,-0.014,0.934,-0.382,1.343,3.693,-0.183,60.000,266087.000,1.000
5.051,-3.067,3.993,14.298,9.714,5.922,7.692,2.059,-0.013,0.935,-0.383,1.190,3.784,-0.305,60.000,266088.000,1.000
6.288,-1.424,7.320,19.303,14.537,12.374,14.797,7.872,-0.014,0.935,-0.385,1.221,3.784,-0.275,60.000,266089.000,1.000
-1.603,8.392,6.861,10.708,8.940,11.625,8.032,7.259,-0.016,0.936,-0.385,1.282,3.815,-0.305,60.000,266090.000,1.000
-12.711,9.625,-0.622,-1.963,-1.575,4.721,-2.225,1.626,-0.017,0.937,-0.385,1.221,3.937,-0.336,60.000,266091.000,1.000
-17.006,-3.489,-9.295,-4.531,-6.099,-0.242,-1.979,-1.491,-0.017,0.935,-0.381,1.129,3.906,-0.366,60.000,266092.000,1.000
-13.990,-17.692,-12.156,2.477,-3.212,0.693,6.981,1.196,-0.017,0.933,-0.382,1.129,3.845,-0.305,60.000,266093.000,1.000
-13.091,-18.712,-10.463,4.902,-2.460,2.259,9.908,4.372,-0.017,0.933,-0.383,1.160,3.906,-0.427,60.000,266094.000,1.000
-20.222,-10.373,-11.560,-5.006,-10.357,-1.982,0.202,1.841,-0.017,0.932,-0.384,1.190,3.815,-0.641,60.000,266095.000,1.000
-29.122,-8.538,-18.184,-17.362,-20.513,-9.892,-10.692,-4.479,-0.015,0.932,-0.385,1.068,3.998,-0.671,60.000,266096.000,1.000
-29.595,-18.546,-24.184,-17.950,-21.871,-13.129,-8.610,-6.922,-0.015,0.936,-0.384,1.099,3.906,-0.671,60.000,266097.000,1.000
-21.521,-27.705,-22.871,-7.886,-13.988,-8.686,3.622,-2.766,-0.015,0.937,-0.384,1.007,3.876,-0.610,60.000,266098.000,1.000
-15.285,-23.254,-16.498,-2.361,-8.176,-3.530,9.445,1.613,-0.016,0.936,-0.385,1.068,3.906,-0.549,60.000,266099.000,1.000
-17.928,-10.698,-13.553,-9.968,-12.588,-5.577,0.718,-0.844,-0.015,0.936,-0.382,1.068,3.754,-0.641,60.000,266100.000,1.000
-23.983,-6.841,-17.406,-21.082,-21.515,-13.182,-11.539,-8.350,-0.015,0.935,-0.382,1.007,3.723,-0.702,60.000,266101.000,1.000
-23.263,-16.791,-21.796,-21.160,-23.383,-17.461,-12.399,-12.609,-0.015,0.936,-0.384,0.977,3.693,-0.671,60.000,266102.000,1.000
-14.747,-26.543,-19.328,-10.544,-16.362,-14.153,-3.143,-9.792,-0.019,0.936,-0.385,0.824,3.662,-0.702,60.000,266103.000,1.000
-7.698,-21.836,-11.499,-3.626,-10.322,-8.959,1.248,-5.292,-0.020,0.936,-0.383,0.854,3.632,-0.763,60.000,266104.000,1.000
-8.620,-7.517,-6.564,-8.717,-12.747,-9.268,-6.615,-5.896,-0.021,0.937,-0.384,0.824,3.510,-0.763,60.000,266105.000,1.000
-12.258,-0.763,-8.280,-16.597,-18.357,-13.885,-16.126,-10.353,-0.021,0.935,-0.384,0.916,3.448,-0.824,60.000,266106.000,1.000
-9.445,-7.856,-11.321,-13.838,-17.057,-15.158,-13.798,-11.590,-0.021,0.938,-0.385,0.854,3.387,-0.763,60.000,266107.000,1.000
-0.615,-16.391,-9.370,-2.188,-8.864,-10.287,-2.697,-7.235,-0.020,0.936,-0.384,0.854,3.235,-0.641,60.000,266108.000,1.000
4.443,-12.923,-4.037,3.448,-4.400,-5.563,1.382,-3.235,-0.021,0.937,-0.382,0.732,3.113,-0.641,60.000,266109.000,1.000
0.407,-1.364,-2.215,-4.218,-10.014,-7.457,-8.048,-5.409,-0.020,0.937,-0.379,0.732,2.960,-0.702,60.000,266110.000,1.000
-5.527,3.159,-5.755,-14.167,-18.200,-12.944,-18.488,-10.705,-0.020,0.937,-0.381,0.763,2.808,-0.671,60.000,266111.000,1.000
-2.942,-3.974,-8.183,-11.595,-16.974,-12.858,-14.883,-10.649,-0.023,0.938,-0.382,0.702,2.686,-0.702,60.000,266112.000,1.000
7.452,-10.169,-3.533,1.888,-5.907,-4.256,-0.056,-2.788,-0.020,0.936,-0.382,0.702,2.686,-0.610,60.000,266113.000,1.000
14.226,-3.356,4.866,10.217,3.150,5.149,8.936,5.614,-0.019,0.934,-0.383,0.671,2.533,-0.519,60.000,266114.000,1.000
10.083,10.544,8.123,4.449,1.784,6.849,3.676,6.905,-0.020,0.935,-0.383,0.732,2.441,-0.488,60.000,266115.000,1.000
1.006,14.868,3.216,-5.643,-4.255,2.366,-4.867,2.793,-0.020,0.934,-0.380,0.610,2.258,-0.488,60.000,266116.000,1.000
-2.395,4.609,-3.254,-5.497,-3.695,0.505,-2.125,1.455,-0.019,0.932,-0.380,0.580,2.289,-0.488,60.000,266117.000,1.000
0.901,-6.602,-3.900,4.304,4.509,5.157,9.846,6.254,-0.020,0.934,-0.380,0.519,2.167,-0.519,60.000,266118.000,1.000
2.022,-4.666,0.091,9.525,10.096,10.504,15.638,11.568,-0.018,0.934,-0.382,0.488,2.197,-0.519,60.000,266119.000,1.000
-4.324,6.356,1.532,2.602,6.221,9.768,8.349,11.043,-0.017,0.933,-0.382,0.519,2.167,-0.488,60.000,266120.000,1.000
-11.829,10.438,-2.314,-6.766,-0.850,4.913,-0.688,6.407,-0.015,0.931,-0.379,0.610,2.136,-0.458,60.000,266121.000,1.000
-11.088,1.996,-5.839,-5.213,-0.441,3.887,2.309,4.811,-0.016,0.931,-0.380,0.671,2.106,-0.458,60.000,266122.000,1.000
-2.606,-6.361,-2.954,5.652,7.685,9.442,14.370,8.800,-0.017,0.932,-0.381,0.763,2.045,-0.427,60.000,266123.000,1.000
3.674,-1.497,4.160,11.312,12.867,14.993,19.715,12.804,-0.016,0.934,-0.382,0.763,1.984,-0.519,60.000,266124.000,1.000
1.607,11.631,7.566,4.222,8.105,13.314,11.349,10.899,-0.015,0.933,-0.384,0.885,2.014,-0.549,60.000,266125.000,1.000
-3.286,16.342,4.061,-5.919,-0.393,6.230,0.545,5.076,-0.017,0.934,-0.384,0.854,1.984,-0.580,60.000,266126.000,1.000
-1.979,6.932,-0.746,-5.696,-1.845,1.987,1.126,2.498,-0.015,0.934,-0.381,0.854,1.923,-0.641,60.000,266127.000,1.000
5.380,-3.505,-0.209,3.462,4.316,3.992,10.353,5.543,-0.014,0.933,-0.381,0.854,1.892,-0.641,60.000,266128.000,1.000
9.991,-0.866,4.609,7.548,8.040,6.574,12.978,8.583,-0.015,0.934,-0.379,0.946,1.984,-0.732,60.000,266129.000,1.000
7.170,10.928,7.026,-0.168,3.004,3.434,2.783,6.000,-0.016,0.934,-0.382,0.946,2.045,-0.763,60.000,266130.000,1.000
3.272,15.691,4.396,-9.444,-4.366,-3.242,-8.422,0.220,-0.015,0.931,-0.380,1.038,2.014,-0.854,60.000,266131.000,1.000
7.042,7.486,1.912,-7.018,-3.683,-5.648,-6.848,-1.426,-0.017,0.930,-0.381,1.038,1.953,-0.854,60.000,266132.000,1.000
17.242,-1.231,5.214,4.966,4.932,-1.230,4.282,3.183,-0.016,0.930,-0.382,1.160,2.014,-0.916,60.000,266133.000,1.000
23.504,2.662,11.881,11.356,10.518,3.333,8.858,7.587,-0.018,0.929,-0.380,1.190,1.984,-0.854,60.000,266134.000,1.000
19.694,14.146,13.994,4.277,5.870,0.858,-0.329,5.098,-0.018,0.931,-0.385,1.221,1.862,-0.977,60.000,266135.000,1.000
12.017,16.726,8.843,-6.194,-2.614,-6.469,-11.737,-2.104,-0.017,0.933,-0.384,1.343,1.923,-1.038,60.000,266136.000,1.000
10.764,5.442,2.997,-5.753,-3.495,-9.736,-10.704,-5.681,-0.015,0.931,-0.382,1.465,1.892,-1.068,60.000,266137.000,1.000
16.712,-5.843,3.730,4.619,4.205,-5.190,0.662,-2.265,-0.017,0.932,-0.383,1.404,1.953,-1.129,60.000,266138.000,1.000
20.613,-3.156,9.384,10.172,9.849,0.855,6.636,2.184,-0.016,0.933,-0.380,1.434,2.075,-1.068,60.000,266139.000,1.000
16.390,8.748,11.954,2.914,6.046,0.901,-0.229,0.841,-0.017,0.933,-0.382,1.434,1.984,-1.038,60.000,266140.000,1.000
9.722,13.294,8.211,-7.238,-1.117,-3.423,-8.841,-4.501,-0.018,0.931,-0.381,1.556,1.953,-1.068,60.000,266141.000,1.000
10.026,4.923,3.941,-6.173,-0.656,-3.934,-5.251,-6.085,-0.017,0.930,-0.383,1.556,1.923,-1.160,60.000,266142.000,1.000
17.136,-3.484,5.747,4.985,8.095,2.544,7.748,-0.978,-0.017,0.930,-0.379,1.648,1.953,-1.160,60.000,266143.000,1.000
21.494,1.461,11.986,11.725,14.792,9.839,14.495,5.156,-0.016,0.933,-0.382,1.709,2.014,-1.129,60.000,266144.000,1.000
17.393,14.925,15.022,6.287,12.388,10.868,8.091,6.014,-0.018,0.933,-0.380,1.678,2.045,-1.099,60.000,266145.000,1.000
10.608,20.089,11.442,-2.004,6.457,7.008,-0.314,3.042,-0.019,0.933,-0.381,1.587,2.045,-1.038,60.000,266146.000,1.000
10.090,11.011,6.457,-0.099,7.097,5.811,2.950,3.007,-0.017,0.934,-0.379,1.678,2.075,-0.977,60.000,266147.000,1.000
15.303,0.523,6.418,10.297,14.594,10.195,15.059,8.154,-0.018,0.936,-0.380,1.678,2.136,-0.977,60.000,266148.000,1.000
16.605,2.026,9.601,14.540,18.501,13.843,20.137,12.371,-0.017,0.936,-0.381,1.678,2.167,-0.977,60.000,266149.000,1.000
8.404,10.663,8.352,4.996,11.767,9.593,10.692,9.133,-0.018,0.935,-0.381,1.617,2.228,-0.916,60.000,266150.000,1.000
-2.892,10.205,-0.103,-8.222,0.725,-0.435,-2.148,0.652,-0.018,0.935,-0.383,1.617,2.228,-0.946,60.000,266151.000,1.000
-7.245,-3.986,-9.280,-10.778,-3.094,-7.131,-3.783,-4.617,-0.018,0.936,-0.382,1.617,2.319,-0.977,60.000,266152.000,1.000
-4.242,-17.766,-11.722,-3.347,1.798,-6.154,4.190,-2.967,-0.018,0.934,-0.384,1.526,2.319,-0.977,60.000,266153.000,1.000
-2.953,-16.878,-8.546,0.004,5.558,-3.015,6.965,0.151,-0.018,0.933,-0.383,1.617,2.380,-0.824,60.000,266154.000,1.000
-8.704,-5.856,-7.242,-8.129,1.254,-4.707,-2.210,-1.869,-0.019,0.933,-0.381,1.556,2.411,-0.854,60.000,266155.000,1.000
-15.274,-1.308,-11.019,-17.995,-5.368,-9.764,-12.318,-7.642,-0.019,0.932,-0.381,1.526,2.380,-0.824,60.000,266156.000,1.000
-13.446,-9.050,-14.528,-16.298,-4.179,-10.570,-9.949,-10.044,-0.018,0.930,-0.382,1.617,2.502,-0.854,60.000,266157.000,1.000
-4.019,-16.518,-11.624,-4.838,4.732,-4.432,1.702,-6.368,-0.018,0.933,-0.381,1.648,2.533,-0.854,60.000,266158.000,1.000
2.838,-10.733,-4.254,1.775,10.641,2.190,6.793,-2.148,-0.016,0.934,-0.385,1.556,2.594,-0.763,60.000,266159.000,1.000
0.925,2.990,-0.276,-4.011,6.410,1.998,-1.864,-3.655,-0.018,0.932,-0.384,1.526,2.686,-0.793,60.000,266160.000,1.000
-4.160,7.645,-3.167,-12.705,-2.287,-3.781,-13.575,-9.593,-0.017,0.933,-0.384,1.526,2.594,-0.793,60.000,266161.000,1.000
-3.074,-2.245,-7.494,-11.165,-5.079,-7.543,-14.916,-13.194,-0.017,0.935,-0.383,1.465,2.625,-0.885,60.000,266162.000,1.000
4.412,-12.829,-6.369,-0.896,-1.026,-5.819,-8.178,-11.753,-0.016,0.935,-0.381,1.556,2.686,-0.824,60.000,266163.000,1.000
9.330,-9.552,-0.731,3.995,0.616,-3.653,-7.633,-10.353,-0.015,0.935,-0.383,1.434,2.747,-0.854,60.000,266164.000,1.000
6.349,3.448,2.405,-3.437,-5.982,-6.785,-18.808,-14.350,-0.016,0.935,-0.385,1.465,2.777,-0.793,60.000,266165.000,1.000
1.633,9.727,0.143,-12.849,-14.238,-12.687,-29.676,-21.070,-0.017,0.933,-0.384,1.495,2.869,-0.824,60.000,266166.000,1.000
4.451,3.390,-2.190,-10.536,-13.684,-13.397,-26.497,-22.683,-0.018,0.930,-0.381,1.465,2.991,-0.763,60.000,266167.000,1.000
13.906,-3.352,1.094,1.504,-4.518,-6.623,-12.776,-16.717,-0.018,0.930,-0.382,1.434,3.143,-0.763,60.000,266168.000,1.000
19.375,2.028,7.409,7.896,2.161,0.428,-4.966,-9.675,-0.017,0.929,-0.383,1.526,3.113,-0.641,60.000,266169.000,1.000
14.487,14.379,8.877,0.702,-0.852,0.236,-10.430,-8.532,-0.017,0.931,-0.387,1.587,3.143,-0.580,60.000,266170.000,1.000
5.677,17.876,3.140,-9.790,-7.205,-5.106,-17.814,-11.590,-0.015,0.931,-0.386,1.709,3.204,-0.610,60.000,266171.000,1.000
3.849,8.538,-2.635,-8.855,-5.463,-6.496,-12.725,-10.883,-0.014,0.929,-0.386,1.770,3.326,-0.702,60.000,266172.000,1.000
10.469,0.783,-0.378,3.247,5.792,0.393,2.832,-2.828,-0.016,0.930,-0.385,1.892,3.418,-0.793,60.000,266173.000,1.000
16.550,8.001,8.632,12.321,16.347,9.564,13.379,6.975,-0.017,0.933,-0.385,1.862,3.418,-0.641,60.000,266174.000,1.000
15.446,23.677,15.582,9.911,18.115,12.697,10.898,11.179,-0.016,0.931,-0.386,1.953,3.540,-0.671,60.000,266175.000,1.000
11.713,29.487,15.603,4.437,15.428,9.856,5.053,10.206,-0.016,0.929,-0.385,1.953,3.510,-0.702,60.000,266176.000,1.000
13.881,19.523,13.271,8.551,17.829,8.307,8.801,10.760,-0.015,0.929,-0.383,1.953,3.571,-0.702,60.000,266177.000,1.000
21.518,7.622,14.980,20.566,25.678,11.575,19.656,15.671,-0.015,0.929,-0.385,2.106,3.601,-0.549,60.000,266178.000,1.000
25.128,8.071,19.372,26.211,29.055,14.381,22.993,19.642,-0.018,0.930,-0.386,2.197,3.693,-0.702,60.000,266179.000,1.000
19.241,16.433,19.305,18.453,21.726,10.556,12.896,16.920,-0.020,0.931,-0.386,2.258,3.723,-0.732,60.000,266180.000,1.000
10.260,16.603,12.338,7.652,10.573,2.575,1.291,9.948,-0.019,0.932,-0.385,2.289,3.662,-0.854,60.000,266181.000,1.000
7.725,3.649,4.619,7.514,6.859,-1.123,2.118,6.494,-0.021,0.932,-0.384,2.197,3.632,-0.854,60.000,266182.000,1.000
10.974,-9.346,2.529,16.063,11.083,2.326,12.109,9.009,-0.021,0.936,-0.387,2.228,3.632,-1.129,60.000,266183.000,1.000
10.027,-9.507,3.910,18.272,12.551,6.067,15.106,11.216,-0.022,0.938,-0.385,2.106,3.632,-1.190,60.000,266184.000,1.000
-0.219,-1.856,1.338,7.012,4.468,2.923,4.348,6.918,-0.023,0.938,-0.383,2.075,3.510,-1.221,60.000,266185.000,1.000
-12.212,-2.058,-7.147,-6.778,-6.430,-4.686,-8.122,-1.282,-0.021,0.939,-0.385,1.953,3.418,-1.221,60.000,266186.000,1.000
-15.223,-14.194,-14.683,-8.765,-8.936,-7.927,-7.863,-5.338,-0.021,0.940,-0.386,1.862,3.387,-1.343,60.000,266187.000,1.000
-9.124,-24.191,-14.145,-0.330,-2.345,-3.211,2.646,-2.329,-0.021,0.942,-0.385,1.740,3.387,-1.251,60.000,266188.000,1.000
-3.885,-18.446,-7.171,4.072,3.168,3.465,8.150,2.161,-0.020,0.941,-0.385,1.556,3.296,-1.221,60.000,266189.000,1.000
-5.681,-2.315,-1.554,-2.613,0.935,5.096,2.096,2.221,-0.021,0.941,-0.386,1.434,3.326,-1.282,60.000,266190.000,1.000
-8.611,7.074,-0.590,-9.981,-2.985,3.279,-4.303,-0.010,-0.021,0.941,-0.387,1.221,3.265,-1.282,60.000,266191.000,1.000
-3.476,3.646,0.724,-4.679,1.291,5.394,1.853,2.390,-0.021,0.942,-0.385,1.221,3.326,-1.129,60.000,266192.000,1.000
8.642,-0.467,7.565,10.503,12.807,13.349,16.225,10.714,-0.023,0.940,-0.387,1.099,3.204,-1.190,60.000,266193.000,1.000
17.257,7.314,17.086,19.721,20.177,20.058,22.226,17.945,-0.022,0.940,-0.384,0.793,3.235,-1.129,60.000,266194.000,1.000
16.676,22.178,21.809,15.293,16.805,18.836,13.377,17.801,-0.022,0.939,-0.385,0.824,3.204,-0.977,60.000,266195.000,1.000
13.684,28.522,19.848,7.808,9.869,12.640,2.144,13.080,-0.022,0.940,-0.385,0.671,3.082,-0.885,60.000,266196.000,1.000
18.060,21.684,17.778,11.309,10.621,10.350,3.068,11.859,-0.022,0.940,-0.386,0.519,3.052,-0.854,60.000,266197.000,1.000
29.050,14.621,22.011,24.033,19.261,15.060,13.346,16.732,-0.024,0.941,-0.382,0.458,2.991,-0.763,60.000,266198.000,1.000
36.380,20.045,30.270,31.109,25.035,20.272,17.375,21.661,-0.025,0.939,-0.382,0.397,2.930,-0.580,60.000,266199.000,1.000
34.327,32.680,34.748,25.304,21.271,19.080,8.733,20.548,-0.025,0.939,-0.381,0.244,2.930,-0.610,60.000,266200.000,1.000
29.466,36.390,32.680,17.154,14.644,13.742,-0.751,15.758,-0.025,0.936,-0.381,0.214,2.869,-0.580,60.000,266201.000,1.000
31.477,26.477,29.865,20.468,15.973,12.537,2.751,14.931,-0.023,0.934,-0.383,0.153,2.808,-0.458,60.000,266202.000,1.000
39.682,16.307,32.324,33.129,25.260,18.316,15.970,20.447,-0.024,0.936,-0.380,-0.031,2.960,-0.458,60.000,266203.000,1.000
43.821,18.926,37.627,39.744,31.556,24.510,22.990,26.078,-0.023,0.935,-0.379,-0.031,2.686,-0.366,60.000,266204.000,1.000
38.011,29.027,37.972,32.566,27.864,24.091,17.109,25.465,-0.022,0.935,-0.380,-0.122,2.625,-0.244,60.000,266205.000,1.000
28.653,30.227,30.807,21.842,20.497,19.089,9.851,20.719,-0.021,0.934,-0.381,-0.092,2.533,-0.336,60.000,266206.000,1.000
25.278,17.475,22.203,21.259,19.890,17.342,14.530,19.165,-0.021,0.933,-0.377,-0.214,2.472,-0.305,60.000,266207.000,1.000
27.205,3.769,18.400,28.832,25.712,21.105,27.183,22.910,-0.021,0.932,-0.381,-0.244,2.441,-0.244,60.000,266208.000,1.000
24.741,2.176,17.441,29.818,27.124,23.572,31.527,25.860,-0.019,0.930,-0.380,-0.183,2.350,-0.183,60.000,266209.000,1.000
13.113,7.982,12.334,17.458,17.774,18.188,21.137,22.207,-0.020,0.928,-0.382,-0.122,2.411,-0.122,60.000,266210.000,1.000
-0.297,5.670,1.294,2.762,4.844,7.905,8.297,14.593,-0.020,0.929,-0.381,-0.031,2.411,-0.092,60.000,266211.000,1.000
-5.467,-8.928,-9.114,-0.223,-0.302,1.666,7.416,10.709,-0.020,0.928,-0.380,-0.061,2.441,-0.122,60.000,266212.000,1.000
-2.992,-22.099,-12.355,6.633,2.948,2.775,15.783,12.918,-0.020,0.927,-0.381,0.000,2.472,-0.061,60.000,266213.000,1.000
-2.809,-20.656,-10.409,8.547,4.253,4.840,17.893,15.087,-0.018,0.928,-0.377,0.092,2.533,-0.122,60.000,266214.000,1.000
-10.201,-10.052,-10.841,-1.539,-3.158,0.668,7.001,10.890,-0.017,0.928,-0.378,0.153,2.502,-0.122,60.000,266215.000,1.000
-18.326,-7.000,-16.345,-13.154,-13.179,-7.969,-5.731,2.343,-0.017,0.928,-0.383,0.244,2.533,-0.031,60.000,266216.000,1.000
-17.458,-16.481,-20.905,-12.624,-15.229,-12.784,-6.761,-2.904,-0.018,0.927,-0.381,0.305,2.533,-0.122,60.000,266217.000,1.000
-8.305,-24.853,-17.990,-1.801,-8.738,-10.210,1.197,-1.784,-0.018,0.928,-0.381,0.458,2.563,-0.153,60.000,266218.000,1.000
-1.111,-18.660,-9.602,4.560,-3.757,-5.977,3.199,0.442,-0.014,0.929,-0.380,0.549,2.533,-0.275,60.000,266219.000,1.000
-1.747,-3.027,-3.583,-0.721,-6.759,-6.699,-6.705,-1.888,-0.016,0.928,-0.380,0.641,2.716,-0.336,60.000,266220.000,1.000
-3.970,5.616,-2.957,-7.290,-11.477,-10.361,-16.670,-6.485,-0.015,0.928,-0.383,0.610,2.747,-0.336,60.000,266221.000,1.000
1.356,1.997,-2.336,-1.912,-7.939,-9.365,-13.424,-6.392,-0.016,0.930,-0.384,0.641,2.686,-0.366,60.000,266222.000,1.000
12.983,-1.437,3.694,12.497,2.765,-1.902,-1.270,-0.419,-0.015,0.934,-0.382,0.763,2.655,-0.336,60.000,266223.000,1.000
20.415,7.249,12.162,20.043,8.871,4.496,2.951,4.158,-0.014,0.933,-0.385,0.854,2.716,-0.427,60.000,266224.000,1.000
17.774,21.886,15.116,13.028,3.342,2.493,-7.639,0.775,-0.013,0.933,-0.383,0.824,2.930,-0.488,60.000,266225.000,1.000
11.545,26.030,10.417,2.198,-6.592,-5.192,-20.684,-7.615,-0.016,0.936,-0.382,0.854,2.960,-0.519,60.000,266226.000,1.000
11.786,15.708,5.141,2.183,-8.736,-9.015,-21.084,-12.038,-0.017,0.935,-0.383,0.977,2.960,-0.610,60.000,266227.000,1.000
18.665,5.457,6.551,12.015,-1.582,-4.755,-10.719,-8.791,-0.018,0.934,-0.384,0.885,2.991,-0.732,60.000,266228.000,1.000
22.623,8.923,12.710,17.228,4.725,1.706,-4.609,-3.473,-0.017,0.934,-0.381,0.977,2.960,-0.641,60.000,266229.000,1.000
17.869,20.554,15.503,10.364,2.966,3.133,-9.324,-2.585,-0.016,0.934,-0.381,0.946,3.021,-0.610,60.000,266230.000,1.000
10.434,23.476,11.796,1.339,-1.398,0.869,-13.865,-4.580,-0.015,0.933,-0.380,0.885,3.052,-0.580,60.000,266231.000,1.000
9.645,12.658,7.375,3.396,1.370,2.293,-5.563,-2.660,-0.017,0.936,-0.382,0.946,3.052,-0.610,60.000,266232.000,1.000
15.027,1.633,8.550,14.387,10.831,9.737,11.363,4.956,-0.017,0.938,-0.386,1.038,3.174,-0.641,60.000,266233.000,1.000
16.939,3.676,13.256,19.499,16.233,16.506,20.573,11.833,-0.018,0.936,-0.383,1.129,3.174,-0.793,60.000,266234.000,1.000
10.039,13.513,13.876,11.632,11.006,15.630,15.311,11.684,-0.021,0.936,-0.382,1.160,3.204,-0.763,60.000,266235.000,1.000
0.968,14.864,7.910,1.349,1.996,9.415,7.286,6.929,-0.020,0.934,-0.382,1.190,3.326,-0.732,60.000,266236.000,1.000
-0.441,3.316,1.748,2.597,0.548,6.518,10.495,5.616,-0.018,0.934,-0.382,1.282,3.204,-0.732,60.000,266237.000,1.000
5.400,-7.498,1.955,13.484,7.161,10.126,21.883,10.437,-0.017,0.933,-0.385,1.251,3.204,-0.641,60.000,266238.000,1.000
8.259,-5.112,6.007,18.567,10.731,13.430,25.403,14.805,-0.013,0.932,-0.385,1.373,3.174,-0.641,60.000,266239.000,1.000
2.116,4.194,5.630,9.834,3.743,8.986,14.104,11.719,-0.016,0.932,-0.385,1.465,3.204,-0.610,60.000,266240.000,1.000
-6.562,3.952,-1.763,-2.530,-7.532,-0.969,-0.261,3.209,-0.017,0.931,-0.385,1.526,3.296,-0.641,60.000,266241.000,1.000
-7.600,-9.541,-9.281,-4.269,-11.726,-7.432,-3.334,-2.558,-0.019,0.932,-0.384,1.587,3.265,-0.610,60.000,266242.000,1.000
-0.703,-21.405,-9.518,3.662,-7.654,-6.584,2.488,-2.239,-0.019,0.930,-0.383,1.678,3.235,-0.671,60.000,266243.000,1.000
4.610,-17.893,-4.208,7.077,-5.242,-4.485,2.005,-1.378,-0.020,0.929,-0.382,1.801,3.265,-0.641,60.000,266244.000,1.000
2.521,-4.592,-1.293,-1.092,-11.016,-8.093,-11.008,-6.087,-0.020,0.927,-0.383,1.892,3.265,-0.793,60.000,266245.000,1.000
-0.831,1.845,-3.545,-10.384,-18.403,-15.073,-24.413,-13.967,-0.021,0.927,-0.383,1.923,3.265,-0.854,60.000,266246.000,1.000
3.813,-3.547,-4.974,-7.354,-16.833,-16.942,-24.213,-17.342,-0.020,0.927,-0.383,2.106,3.143,-0.885,60.000,266247.000,1.000
15.182,-8.137,0.092,5.129,-6.960,-11.121,-14.045,-14.234,-0.021,0.928,-0.383,2.167,3.143,-0.977,60.000,266248.000,1.000
22.369,-0.221,8.369,11.137,-0.375,-4.762,-10.203,-11.300,-0.023,0.928,-0.382,2.106,3.113,-0.977,60.000,266249.000,1.000
19.065,13.748,11.331,3.031,-4.218,-5.185,-19.245,-14.745,-0.021,0.929,-0.385,2.167,2.899,-0.885,60.000,266250.000,1.000
11.596,17.228,6.257,-8.506,-11.924,-10.232,-29.189,-21.791,-0.020,0.930,-0.385,2.380,2.991,-0.977,60.000,266251.000,1.000
10.087,6.266,-0.162,-9.149,-12.424,-11.452,-26.027,-24.182,-0.019,0.932,-0.382,2.411,2.838,-1.007,60.000,266252.000,1.000
14.980,-4.527,-0.567,-0.048,-5.077,-5.597,-12.741,-19.008,-0.019,0.933,-0.384,2.411,2.869,-0.946,60.000,266253.000,1.000
17.197,-1.407,3.633,4.529,-0.117,1.135,-4.968,-12.375,-0.018,0.935,-0.385,2.350,2.960,-0.946,60.000,266254.000,1.000
11.344,10.162,4.823,-2.615,-4.248,1.756,-9.521,-11.113,-0.018,0.935,-0.386,2.411,2.808,-0.977,60.000,266255.000,1.000
3.445,13.453,0.003,-11.673,-11.284,-1.872,-15.327,-13.868,-0.020,0.935,-0.383,2.441,2.777,-0.885,60.000,266256.000,1.000
2.364,3.455,-5.252,-9.918,-10.840,-1.848,-9.280,-13.738,-0.020,0.936,-0.385,2.411,2.899,-0.732,60.000,266257.000,1.000
6.908,-6.804,-5.064,-0.125,-3.069,4.342,4.987,-8.555,-0.019,0.936,-0.385,2.319,2.777,-0.732,60.000,266258.000,1.000
6.933,-4.857,-1.835,2.686,1.258,9.864,11.745,-4.210,-0.019,0.938,-0.384,2.289,2.777,-0.702,60.000,266259.000,1.000
-2.830,3.644,-3.093,-8.114,-4.457,7.693,4.839,-6.378,-0.021,0.938,-0.385,2.228,2.777,-0.549,60.000,266260.000,1.000
-15.372,2.675,-11.036,-21.422,-13.578,0.144,-3.844,-12.402,-0.020,0.937,-0.385,2.075,2.716,-0.488,60.000,266261.000,1.000
-20.585,-11.624,-19.153,-23.231,-15.366,-4.292,-0.845,-14.622,-0.021,0.936,-0.385,1.984,2.686,-0.397,60.000,266262.000,1.000
-18.397,-24.769,-20.611,-15.270,-9.627,-2.395,10.222,-10.640,-0.021,0.938,-0.384,1.862,2.777,-0.244,60.000,266263.000,1.000
-17.996,-23.120,-17.161,-12.034,-6.791,-0.286,13.541,-6.519,-0.021,0.937,-0.382,1.892,2.808,-0.153,60.000,266264.000,1.000
-24.586,-12.286,-16.466,-20.523,-13.401,-4.661,2.800,-8.511,-0.020,0.937,-0.383,1.709,2.716,-0.122,60.000,266265.000,1.000
-32.072,-9.328,-21.459,-30.558,-22.992,-13.280,-10.070,-14.485,-0.021,0.938,-0.388,1.648,2.655,0.000,60.000,266266.000,1.000
-31.580,-19.344,-26.258,-28.863,-24.834,-17.783,-11.073,-16.779,-0.020,0.938,-0.388,1.648,2.716,0.092,60.000,266267.000,1.000
-23.960,-28.680,-24.287,-17.473,-18.503,-14.977,-3.028,-12.661,-0.018,0.937,-0.385,1.617,2.655,0.122,60.000,266268.000,1.000
-18.934,-24.045,-17.382,-11.014,-14.171,-11.040,-1.176,-8.025,-0.018,0.937,-0.388,1.404,2.563,0.305,60.000,266269.000,1.000
-21.804,-10.841,-13.154,-16.532,-18.207,-12.737,-11.647,-9.170,-0.018,0.935,-0.386,1.343,2.594,0.275,60.000,266270.000,1.000
-26.010,-5.387,-14.346,-23.789,-24.100,-17.809,-22.628,-14.100,-0.018,0.934,-0.385,1.282,2.747,0.366,60.000,266271.000,1.000
-22.113,-12.104,-15.133,-19.586,-21.428,-17.974,-20.540,-15.432,-0.017,0.935,-0.389,1.129,2.747,0.366,60.000,266272.000,1.000
-11.026,-17.482,-9.549,-6.322,-10.543,-10.463,-8.867,-10.796,-0.018,0.935,-0.391,1.129,2.655,0.366,60.000,266273.000,1.000
-3.163,-9.171,-0.251,1.033,-2.544,-2.113,-3.439,-6.151,-0.019,0.935,-0.387,1.068,2.686,0.366,60.000,266274.000,1.000
-4.681,6.213,4.537,-4.632,-4.564,-0.467,-10.800,-7.548,-0.015,0.935,-0.387,0.977,2.655,0.458,60.000,266275.000,1.000
-9.688,11.402,1.817,-12.986,-10.525,-4.083,-19.534,-12.761,-0.016,0.937,-0.385,0.946,2.777,0.519,60.000,266276.000,1.000
-8.762,1.805,-2.255,-10.532,-9.739,-4.998,-16.155,-14.151,-0.016,0.936,-0.388,0.977,2.777,0.488,60.000,266277.000,1.000
-1.985,-8.253,-0.786,0.883,-1.497,0.184,-3.583,-8.915,-0.016,0.934,-0.386,0.854,2.655,0.366,60.000,266278.000,1.000
1.258,-5.238,4.416,6.641,4.186,5.669,3.021,-2.875,-0.015,0.934,-0.388,0.793,2.808,0.366,60.000,266279.000,1.000
-4.689,5.131,5.391,-0.595,0.574,4.657,-2.779,-2.566,-0.015,0.935,-0.390,0.793,2.747,0.336,60.000,266280.000,1.000
-13.928,6.120,-0.948,-10.929,-6.467,-1.079,-9.948,-6.458,-0.016,0.936,-0.387,0.793,2.808,0.397,60.000,266281.000,1.000
-17.271,-6.726,-8.642,-11.157,-6.916,-3.753,-5.726,-7.545,-0.015,0.933,-0.384,0.824,2.808,0.122,60.000,266282.000,1.000
-15.161,-19.532,-11.144,-3.365,-1.088,-0.811,5.909,-3.722,-0.015,0.935,-0.385,0.702,2.777,0.092,60.000,266283.000,1.000
-17.062,-19.409,-10.375,-2.173,0.379,1.114,9.114,-1.183,-0.014,0.933,-0.387,0.671,2.899,0.061,60.000,266284.000,1.000
-27.900,-12.125,-13.644,-14.145,-8.578,-4.579,-1.960,-5.773,-0.013,0.933,-0.383,0.671,2.869,0.000,60.000,266285.000,1.000
-40.592,-13.807,-22.907,-28.049,-20.452,-14.897,-14.662,-14.396,-0.012,0.934,-0.383,0.671,2.838,-0.153,60.000,266286.000,1.000
-45.294,-28.317,-31.523,-29.697,-23.784,-20.758,-14.695,-18.605,-0.012,0.933,-0.384,0.641,3.021,-0.305,60.000,266287.000,1.000
-42.653,-41.589,-33.075,-21.032,-18.353,-18.920,-5.233,-15.630,-0.013,0.932,-0.388,0.641,3.082,-0.397,60.000,266288.000,1.000
-42.890,-40.993,-30.251,-17.330,-15.279,-16.183,-2.219,-11.935,-0.012,0.933,-0.383,0.671,2.930,-0.366,60.000,266289.000,1.000
-51.853,-32.863,-31.383,-26.376,-21.895,-20.062,-12.402,-14.436,-0.013,0.931,-0.385,0.610,2.930,-0.519,60.000,266290.000,1.000
-62.871,-33.549,-39.009,-38.005,-31.866,-28.431,-24.102,-21.189,-0.013,0.931,-0.385,0.671,2.960,-0.732,60.000,266291.000,1.000
-65.606,-46.382,-46.134,-38.323,-34.039,-32.367,-23.363,-24.262,-0.017,0.931,-0.385,0.793,2.808,-0.763,60.000,266292.000,1.000
-59.769,-56.540,-45.467,-28.852,-27.750,-28.316,-13.203,-20.765,-0.018,0.931,-0.387,0.793,2.960,-1.038,60.000,266293.000,1.000
-54.849,-50.965,-38.944,-23.985,-23.358,-22.664,-9.244,-16.608,-0.017,0.929,-0.386,0.763,2.869,-1.129,60.000,266294.000,1.000
-56.715,-36.088,-34.687,-30.627,-27.520,-22.643,-17.924,-18.002,-0.016,0.929,-0.386,0.824,2.930,-1.068,60.000,266295.000,1.000
-60.052,-29.385,-36.064,-38.700,-34.078,-26.616,-27.803,-22.939,-0.017,0.930,-0.383,0.885,2.899,-1.282,60.000,266296.000,1.000
-56.866,-36.305,-37.863,-35.601,-33.083,-27.091,-25.858,-24.399,-0.016,0.931,-0.385,0.977,2.869,-1.373,60.000,266297.000,1.000
-48.468,-43.584,-34.145,-23.963,-24.832,-21.551,-15.582,-20.217,-0.018,0.932,-0.387,1.007,2.808,-1.404,60.000,266298.000,1.000
-44.101,-37.954,-26.715,-18.050,-19.388,-15.961,-11.785,-15.918,-0.017,0.931,-0.384,1.007,2.747,-1.404,60.000,266299.000,1.000
-48.331,-24.689,-22.863,-24.149,-22.650,-16.503,-19.786,-17.031,-0.017,0.931,-0.388,1.007,2.686,-1.465,60.000,266300.000,1.000
-54.469,-20.144,-25.323,-31.892,-28.084,-20.884,-27.758,-21.342,-0.017,0.933,-0.388,1.129,2.686,-1.404,60.000,266301.000,1.000
-53.193,-28.610,-28.223,-28.408,-25.491,-21.138,-22.710,-21.671,-0.019,0.934,-0.386,1.038,2.747,-1.373,60.000,266302.000,1.000
-45.050,-35.995,-25.062,-16.161,-15.109,-14.439,-8.399,-15.731,-0.021,0.933,-0.385,1.160,2.533,-1.343,60.000,266303.000,1.000
-39.621,-29.263,-17.765,-9.794,-7.593,-7.093,-0.416,-9.456,-0.019,0.932,-0.385,1.068,2.502,-1.373,60.000,266304.000,1.000
-42.401,-14.662,-14.199,-16.146,-9.736,-6.125,-5.123,-9.058,-0.020,0.932,-0.386,1.282,2.533,-1.343,60.000,266305.000,1.000
-47.555,-9.520,-17.595,-25.071,-15.620,-10.018,-11.496,-12.818,-0.021,0.932,-0.385,1.190,2.441,-1.343,60.000,266306.000,1.000
-46.428,-18.790,-22.408,-23.664,-15.238,-11.245,-6.986,-13.860,-0.021,0.934,-0.387,1.251,2.380,-1.251,60.000,266307.000,1.000
-39.889,-28.562,-22.251,-14.225,-8.599,-7.025,4.647,-9.943,-0.019,0.933,-0.385,1.221,2.289,-1.160,60.000,266308.000,1.000
-37.257,-25.401,-18.773,-11.004,-5.689,-3.321,8.330,-6.607,-0.021,0.934,-0.387,1.190,2.350,-1.190,60.000,266309.000,1.000
-43.073,-14.622,-18.951,-20.034,-12.201,-6.363,-1.195,-9.138,-0.020,0.932,-0.387,1.099,2.258,-1.160,60.000,266310.000,1.000
-50.151,-12.375,-24.693,-30.101,-20.972,-13.535,-11.490,-14.601,-0.021,0.933,-0.388,1.160,2.106,-0.977,60.000,266311.000,1.000
-49.015,-22.937,-29.647,-27.839,-21.475,-16.691,-9.193,-15.440,-0.020,0.933,-0.385,1.068,2.075,-0.885,60.000,266312.000,1.000
-40.825,-32.772,-27.863,-16.269,-14.377,-13.452,1.516,-9.921,-0.018,0.934,-0.385,1.068,2.106,-0.793,60.000,266313.000,1.000
-35.774,-29.335,-22.097,-10.872,-10.749,-10.565,4.517,-4.810,-0.020,0.938,-0.387,1.129,2.167,-0.854,60.000,266314.000,1.000
-39.006,-18.321,-20.020,-18.364,-16.744,-14.383,-6.009,-6.298,-0.021,0.937,-0.387,1.099,2.045,-0.793,60.000,266315.000,1.000
-43.317,-15.368,-23.410,-27.255,-24.753,-21.537,-17.260,-11.467,-0.019,0.935,-0.387,1.099,1.923,-0.702,60.000,266316.000,1.000
-38.722,-23.825,-25.326,-23.216,-23.388,-22.928,-14.982,-12.042,-0.018,0.934,-0.385,0.977,2.075,-0.610,60.000,266317.000,1.000
-26.078,-29.780,-19.491,-8.436,-12.949,-16.000,-2.796,-5.541,-0.019,0.938,-0.385,0.946,2.045,-0.488,60.000,266318.000,1.000
-16.130,-21.511,-9.174,1.415,-5.242,-8.574,2.770,1.309,-0.019,0.937,-0.385,0.885,1.984,-0.549,60.000,266319.000,1.000
-15.286,-6.461,-3.371,-1.724,-8.006,-8.887,-5.390,1.511,-0.019,0.938,-0.385,0.824,2.045,-0.427,60.000,266320.000,1.000
-17.659,-1.966,-5.327,-8.200,-15.156,-15.262,-15.932,-3.166,-0.018,0.939,-0.386,0.671,2.045,-0.275,60.000,266321.000,1.000
-13.895,-11.907,-8.666,-4.884,-15.651,-18.932,-15.195,-5.081,-0.017,0.938,-0.383,0.641,1.984,-0.336,60.000,266322.000,1.000
-4.273,-21.197,-6.162,6.362,-8.456,-15.818,-5.875,-1.271,-0.016,0.937,-0.384,0.610,2.014,-0.244,60.000,266323.000,1.000
1.850,-16.037,0.687,11.466,-3.262,-11.346,-2.629,2.805,-0.014,0.936,-0.386,0.519,2.075,-0.153,60.000,266324.000,1.000
-0.634,-2.192,4.305,4.174,-6.312,-11.987,-10.960,1.393,-0.016,0.936,-0.387,0.458,2.228,-0.122,60.000,266325.000,1.000
-5.041,3.694,1.996,-4.650,-11.248,-15.569,-18.906,-2.998,-0.016,0.937,-0.384,0.305,2.289,-0.275,60.000,266326.000,1.000
-1.815,-2.633,-0.209,-1.661,-7.890,-14.069,-13.341,-2.763,-0.014,0.934,-0.385,0.244,2.258,-0.153,60.000,266327.000,1.000
8.467,-7.370,3.958,10.621,3.343,-4.993,1.655,4.279,-0.016,0.933,-0.387,0.305,2.380,-0.153,60.000,266328.000,1.000
15.981,1.709,12.095,17.272,11.542,4.616,9.971,11.684,-0.015,0.933,-0.385,0.275,2.319,-0.214,60.000,266329.000,1.000
15.043,17.645,16.166,11.445,9.949,7.239,5.198,12.979,-0.013,0.933,-0.385,0.183,2.319,-0.275,60.000,266330.000,1.000
11.340,23.144,13.224,3.470,4.845,4.512,-1.137,10.086,-0.012,0.934,-0.386,0.183,2.350,-0.336,60.000,266331.000,1.000
13.144,13.712,8.974,6.100,6.381,4.219,3.886,9.990,-0.012,0.932,-0.383,0.122,2.411,-0.427,60.000,266332.000,1.000
19.258,3.538,9.603,16.653,14.300,9.183,16.417,14.683,-0.012,0.931,-0.383,0.214,2.533,-0.519,60.000,266333.000,1.000
20.726,6.247,13.402,20.864,18.471,13.610,21.301,18.473,-0.012,0.931,-0.384,0.153,2.655,-0.549,60.000,266334.000,1.000
13.904,16.930,13.651,12.907,13.320,11.719,13.358,16.187,-0.013,0.933,-0.384,0.275,2.747,-0.610,60.000,266335.000,1.000
6.585,19.928,8.567,3.759,5.944,6.342,4.784,10.750,-0.013,0.933,-0.383,0.305,2.594,-0.641,60.000,266336.000,1.000
8.289,11.203,4.306,6.197,6.539,5.384,8.374,9.490,-0.013,0.933,-0.384,0.214,2.686,-0.763,60.000,266337.000,1.000
17.635,4.199,6.749,17.138,14.473,11.035,19.822,14.193,-0.013,0.933,-0.384,0.214,2.716,-0.793,60.000,266338.000,1.000
24.106,11.028,13.325,21.772,19.239,16.630,23.608,18.604,-0.014,0.935,-0.384,0.183,2.747,-0.885,60.000,266339.000,1.000
21.981,25.101,16.193,13.865,14.836,15.498,14.273,16.818,-0.014,0.935,-0.384,0.122,2.747,-0.946,60.000,266340.000,1.000
17.628,29.589,12.708,4.365,7.822,9.803,3.817,11.155,-0.014,0.935,-0.381,0.183,2.838,-0.885,60.000,266341.000,1.000
20.313,20.310,8.907,6.412,8.093,7.393,5.107,8.804,-0.014,0.934,-0.380,0.153,3.021,-1.007,60.000,266342.000,1.000
29.222,11.472,11.116,17.219,15.022,10.958,14.127,11.759,-0.013,0.936,-0.383,0.122,3.021,-0.977,60.000,266343.000,1.000
34.680,16.339,17.272,21.858,18.241,14.556,15.693,14.047,-0.014,0.934,-0.380,0.122,3.174,-0.977,60.000,266344.000,1.000
31.906,29.625,20.171,14.061,12.436,12.605,5.131,10.413,-0.014,0.934,-0.380,0.092,3.235,-1.038,60.000,266345.000,1.000
27.961,35.596,17.922,5.274,5.557,8.597,-4.249,4.388,-0.014,0.933,-0.382,0.061,3.143,-1.068,60.000,266346.000,1.000
31.950,29.955,16.617,9.067,8.325,10.655,1.014,3.981,-0.017,0.935,-0.381,0.122,3.174,-1.160,60.000,266347.000,1.000
41.948,25.036,21.389,22.224,19.144,19.700,15.637,10.621,-0.017,0.936,-0.382,0.122,3.174,-1.099,60.000,266348.000,1.000
46.802,31.343,28.407,28.643,25.410,26.816,21.859,16.625,-0.017,0.935,-0.383,0.275,3.143,-1.221,60.000,266349.000,1.000
40.681,41.521,29.198,20.795,19.721,23.965,12.572,14.939,-0.016,0.934,-0.377,0.214,3.082,-1.312,60.000,266350.000,1.000
30.904,39.818,21.911,9.596,9.340,14.156,0.151,8.237,-0.019,0.934,-0.381,0.214,3.052,-1.251,60.000,266351.000,1.000
28.514,24.458,14.379,9.487,6.487,7.685,-0.489,5.346,-0.017,0.933,-0.381,0.183,3.113,-1.343,60.000,266352.000,1.000
34.109,11.598,14.372,19.170,12.624,9.370,8.679,9.777,-0.018,0.933,-0.380,0.122,3.021,-1.373,60.000,266353.000,1.000
37.819,14.463,19.767,24.064,17.575,13.459,12.892,15.516,-0.021,0.932,-0.381,0.275,3.082,-1.343,60.000,266354.000,1.000
33.247,25.961,21.876,16.788,14.202,12.554,5.911,15.510,-0.019,0.931,-0.380,0.366,2.991,-1.312,60.000,266355.000,1.000
26.065,28.608,17.282,7.233,8.178,7.904,-1.224,11.066,-0.018,0.931,-0.379,0.427,2.991,-1.251,60.000,266356.000,1.000
25.446,18.031,11.872,8.289,9.359,6.876,3.814,9.265,-0.018,0.930,-0.383,0.519,2.960,-1.282,60.000,266357.000,1.000
30.777,8.194,12.021,17.471,17.260,11.709,16.555,12.560,-0.019,0.929,-0.381,0.610,2.960,-1.129,60.000,266358.000,1.000
32.521,11.708,15.645,20.360,21.299,15.804,21.245,15.472,-0.019,0.929,-0.378,0.702,2.869,-1.190,60.000,266359.000,1.000
26.076,22.630,15.613,11.191,15.656,12.948,12.607,13.016,-0.020,0.928,-0.378,0.702,2.747,-1.190,60.000,266360.000,1.000
19.049,25.257,10.522,1.769,7.966,6.489,3.576,8.715,-0.021,0.929,-0.382,0.763,2.625,-1.282,60.000,266361.000,1.000
21.132,16.139,7.179,5.630,9.157,5.098,7.664,10.232,-0.021,0.927,-0.383,0.916,2.716,-1.221,60.000,266362.000,1.000
30.469,8.708,11.065,19.087,18.216,10.680,20.019,18.332,-0.021,0.931,-0.385,0.916,2.716,-1.190,60.000,266363.000,1.000
35.801,14.447,18.350,25.785,23.313,15.469,23.724,24.917,-0.021,0.931,-0.383,0.977,2.594,-1.099,60.000,266364.000,1.000
31.482,26.682,20.594,18.629,17.787,12.433,12.749,23.170,-0.022,0.932,-0.383,1.007,2.563,-1.160,60.000,266365.000,1.000
24.674,29.417,15.767,8.882,8.936,4.674,-0.021,16.148,-0.023,0.931,-0.380,1.038,2.441,-1.160,60.000,266366.000,1.000
25.215,19.325,10.795,10.316,7.862,1.171,-0.431,12.482,-0.022,0.932,-0.380,1.160,2.380,-1.068,60.000,266367.000,1.000
32.413,10.663,12.363,20.519,14.552,4.864,8.075,15.187,-0.022,0.932,-0.384,1.282,2.319,-1.129,60.000,266368.000,1.000
36.680,15.998,18.276,24.793,18.468,9.185,10.016,18.495,-0.023,0.932,-0.381,1.282,2.258,-0.977,60.000,266369.000,1.000
33.150,29.008,20.820,16.777,13.416,7.407,-0.250,16.479,-0.023,0.933,-0.382,1.282,2.228,-0.854,60.000,266370.000,1.000
28.333,33.149,17.444,7.279,6.185,1.956,-10.566,11.438,-0.021,0.933,-0.383,1.282,2.197,-0.702,60.000,266371.000,1.000
30.954,24.505,14.286,9.433,7.282,1.142,-7.610,10.729,-0.022,0.934,-0.385,1.343,2.136,-0.671,60.000,266372.000,1.000
39.754,17.319,17.782,20.729,16.632,7.874,4.976,16.610,-0.022,0.934,-0.382,1.465,2.167,-0.519,60.000,266373.000,1.000
44.821,24.172,25.665,26.452,23.695,15.604,11.686,22.927,-0.021,0.935,-0.383,1.465,2.167,-0.397,60.000,266374.000,1.000
40.783,38.131,29.744,19.730,21.713,16.990,6.266,23.204,-0.021,0.934,-0.385,1.343,2.106,-0.488,60.000,266375.000,1.000
34.095,41.942,26.947,10.840,16.666,13.610,-0.061,19.289,-0.022,0.934,-0.385,1.434,2.045,-0.397,60.000,266376.000,1.000
34.230,31.595,23.319,12.869,18.561,13.352,5.397,18.560,-0.023,0.931,-0.385,1.556,2.075,-0.397,60.000,266377.000,1.000
40.764,21.776,25.439,23.527,27.196,19.176,18.762,23.533,-0.021,0.933,-0.383,1.556,1.892,-0.275,60.000,266378.000,1.000
44.485,26.055,31.588,28.657,32.623,25.246,24.976,28.688,-0.021,0.932,-0.384,1.556,1.801,-0.366,60.000,266379.000,1.000
40.759,39.013,34.801,22.435,29.602,25.652,19.138,28.820,-0.019,0.933,-0.385,1.678,1.892,-0.397,60.000,266380.000,1.000
36.085,44.270,32.847,15.627,25.256,22.897,13.560,26.594,-0.019,0.933,-0.381,1.526,1.831,-0.458,60.000,266381.000,1.000
38.642,36.880,30.993,20.260,28.931,24.068,20.427,28.510,-0.019,0.936,-0.383,1.617,1.831,-0.458,60.000,266382.000,1.000
46.182,29.340,33.904,32.141,38.420,30.193,34.188,35.038,-0.019,0.936,-0.381,1.556,1.923,-0.488,60.000,266383.000,1.000
48.273,33.197,38.180,35.675,41.929,33.835,38.274,38.855,-0.020,0.938,-0.383,1.495,1.831,-0.641,60.000,266384.000,1.000
40.171,42.258,36.357,24.813,33.623,28.749,27.323,34.163,-0.020,0.940,-0.378,1.373,1.678,-0.702,60.000,266385.000,1.000
29.444,41.073,27.243,11.511,21.711,18.623,14.528,24.650,-0.019,0.939,-0.382,1.312,1.678,-0.763,60.000,266386.000,1.000
26.075,26.817,18.187,9.801,17.737,12.614,13.815,18.968,-0.018,0.940,-0.381,1.190,1.678,-0.885,60.000,266387.000,1.000
29.589,14.091,15.865,17.237,21.549,13.594,21.293,19.693,-0.018,0.940,-0.381,1.160,1.801,-0.946,60.000,266388.000,1.000
30.734,15.721,17.997,19.140,22.434,15.104,21.462,20.737,-0.017,0.939,-0.382,1.129,1.831,-1.038,60.000,266389.000,1.000
24.802,25.591,16.981,9.289,14.337,10.787,9.118,16.213,-0.016,0.941,-0.381,0.946,1.740,-1.007,60.000,266390.000,1.000
18.123,27.209,10.479,-1.493,4.201,3.274,-3.322,8.497,-0.016,0.942,-0.383,0.824,1.770,-1.007,60.000,266391.000,1.000
19.181,16.548,4.766,-0.211,2.426,0.664,-2.755,4.921,-0.016,0.941,-0.383,0.702,1.770,-1.099,60.000,266392.000,1.000
26.644,7.578,6.214,10.460,8.672,5.415,6.800,7.724,-0.016,0.939,-0.384,0.641,1.770,-1.099,60.000,266393.000,1.000
30.797,12.698,12.467,15.775,12.410,10.784,9.882,10.951,-0.015,0.939,-0.383,0.488,1.801,-1.007,60.000,266394.000,1.000
26.532,25.179,15.445,8.944,7.354,9.739,0.816,8.538,-0.015,0.939,-0.383,0.427,1.923,-1.129,60.000,266395.000,1.000
20.070,28.091,12.080,0.009,-0.075,4.196,-8.718,2.468,-0.017,0.939,-0.380,0.244,2.075,-1.190,60.000,266396.000,1.000
20.225,17.559,8.183,1.549,0.248,2.102,-5.987,-0.132,-0.019,0.938,-0.381,0.214,2.075,-1.068,60.000,266397.000,1.000
26.151,8.064,10.090,11.039,8.074,6.366,5.135,3.050,-0.019,0.937,-0.382,0.183,2.289,-1.099,60.000,266398.000,1.000
28.486,12.303,15.626,14.346,13.008,10.840,9.485,6.264,-0.020,0.935,-0.382,0.122,2.228,-1.129,60.000,266399.000,1.000
22.570,23.657,17.120,5.669,8.910,9.042,1.703,3.838,-0.021,0.936,-0.383,0.000,2.258,-1.007,60.000,266400.000,1.000
15.320,25.531,12.266,-3.859,2.538,3.472,-6.122,-1.625,-0.020,0.936,-0.382,0.061,2.258,-1.007,60.000,266401.000,1.000
15.958,14.513,7.625,-1.151,4.333,2.411,-1.000,-2.547,-0.022,0.933,-0.380,-0.031,2.380,-1.007,60.000,266402.000,1.000
23.286,5.287,9.803,10.831,13.987,8.494,12.983,3.267,-0.021,0.934,-0.375,0.000,2.472,-0.916,60.000,266403.000,1.000
26.994,10.222,16.191,16.787,20.512,14.657,19.885,9.287,-0.021,0.934,-0.379,-0.031,2.533,-0.916,60.000,266404.000,1.000
21.321,21.888,18.102,9.498,16.793,13.203,13.181,8.624,-0.020,0.931,-0.377,0.000,2.533,-0.977,60.000,266405.000,1.000
12.569,23.002,12.359,-0.823,8.906,5.953,4.115,2.919,-0.021,0.931,-0.377,0.000,2.502,-1.007,60.000,266406.000,1.000
10.285,10.121,5.480,-0.905,7.502,1.627,5.781,-0.333,-0.020,0.930,-0.378,-0.122,2.502,-0.854,60.000,266407.000,1.000
14.541,-1.446,4.892,7.556,13.331,4.243,15.109,1.909,-0.020,0.931,-0.376,-0.031,2.563,-0.732,60.000,266408.000,1.000
16.854,1.859,9.481,11.190,17.032,8.609,17.859,4.717,-0.019,0.932,-0.374,-0.092,2.655,-0.793,60.000,266409.000,1.000
12.734,13.783,11.944,4.306,12.848,8.408,9.140,2.805,-0.019,0.931,-0.375,0.000,2.655,-0.671,60.000,266410.000,1.000
7.933,17.037,9.017,-3.104,6.650,4.980,0.430,-1.905,-0.018,0.933,-0.377,0.000,2.747,-0.763,60.000,266411.000,1.000
9.869,6.737,5.449,0.281,7.211,4.681,3.344,-3.265,-0.020,0.932,-0.379,0.000,2.777,-0.732,60.000,266412.000,1.000
16.416,-3.579,6.587,10.614,13.207,8.961,12.907,-0.054,-0.018,0.932,-0.377,0.153,2.747,-0.671,60.000,266413.000,1.000
18.192,-1.156,10.439,13.595,14.553,11.591,13.981,1.852,-0.017,0.931,-0.379,0.153,2.960,-0.641,60.000,266414.000,1.000
11.801,8.732,10.746,4.489,6.806,7.559,2.537,-2.145,-0.018,0.932,-0.379,0.244,3.021,-0.641,60.000,266415.000,1.000
5.482,11.060,6.566,-4.462,-1.579,1.045,-7.899,-8.187,-0.019,0.933,-0.379,0.275,3.021,-0.610,60.000,266416.000,1.000
8.381,2.445,4.160,-0.366,-0.121,0.425,-4.383,-8.732,-0.018,0.933,-0.380,0.397,3.113,-0.671,60.000,266417.000,1.000
17.774,-4.359,8.127,12.347,9.210,6.700,7.445,-3.018,-0.019,0.933,-0.379,0.275,3.082,-0.732,60.000,266418.000,1.000
22.058,1.092,14.268,17.342,14.116,11.505,10.642,1.403,-0.019,0.934,-0.379,0.336,3.143,-0.732,60.000,266419.000,1.000
15.835,11.513,14.545,8.169,8.202,7.910,-0.140,-1.492,-0.018,0.934,-0.379,0.397,3.326,-0.671,60.000,266420.000,1.000
6.823,11.374,7.798,-3.205,-0.653,-0.405,-11.450,-8.213,-0.021,0.934,-0.377,0.519,3.265,-0.671,60.000,266421.000,1.000
5.368,-1.487,1.642,-2.667,-1.052,-3.982,-9.302,-10.427,-0.021,0.935,-0.374,0.549,3.296,-0.732,60.000,266422.000,1.000
10.952,-11.987,2.856,7.402,6.912,0.258,2.278,-5.809,-0.020,0.935,-0.377,0.671,3.296,-0.732,60.000,266423.000,1.000
13.981,-7.480,9.108,12.490,12.754,5.883,7.698,-0.387,-0.019,0.934,-0.375,0.732,3.387,-0.763,60.000,266424.000,1.000
9.802,5.596,12.800,6.573,10.625,6.489,1.717,0.268,-0.019,0.934,-0.378,0.793,3.387,-0.702,60.000,266425.000,1.000
5.172,10.761,11.411,0.215,7.138,4.385,-3.682,-1.463,-0.019,0.934,-0.379,0.916,3.418,-0.702,60.000,266426.000,1.000
8.266,3.564,10.108,5.128,11.263,6.456,3.230,0.682,-0.020,0.935,-0.379,0.854,3.479,-0.793,60.000,266427.000,1.000
16.199,-3.680,13.192,16.615,20.484,13.156,16.447,6.907,-0.021,0.934,-0.375,0.885,3.418,-0.885,60.000,266428.000,1.000
17.751,-0.395,16.726,18.645,22.861,16.410,19.267,9.636,-0.024,0.935,-0.376,0.824,3.479,-0.793,60.000,266429.000,1.000
8.145,6.730,13.222,5.328,12.810,9.954,6.634,3.131,-0.022,0.935,-0.374,0.854,3.510,-0.793,60.000,266430.000,1.000
-4.122,3.078,2.338,-10.513,-0.787,-1.729,-7.633,-8.283,-0.022,0.935,-0.378,1.038,3.448,-0.854,60.000,266431.000,1.000
-7.798,-12.432,-7.169,-13.627,-5.339,-8.114,-8.662,-14.780,-0.021,0.936,-0.377,1.160,3.479,-0.854,60.000,266432.000,1.000
-2.875,-24.007,-7.687,-5.640,-0.109,-5.259,0.508,-12.810,-0.022,0.936,-0.375,1.129,3.357,-0.885,60.000,266433.000,1.000
0.424,-19.513,-2.073,-1.584,3.895,-0.006,4.162,-8.707,-0.021,0.934,-0.377,1.282,3.326,-0.824,60.000,266434.000,1.000
-4.140,-6.952,0.446,-8.856,-0.790,-0.324,-4.148,-9.581,-0.022,0.935,-0.377,1.434,3.296,-0.793,60.000,266435.000,1.000
-10.880,-3.940,-3.633,-17.494,-8.445,-4.918,-13.085,-13.966,-0.023,0.932,-0.378,1.434,3.357,-0.885,60.000,266436.000,1.000
-10.981,-14.306,-8.269,-14.812,-9.038,-6.054,-9.899,-14.740,-0.024,0.932,-0.380,1.434,3.265,-0.824,60.000,266437.000,1.000
-5.279,-23.476,-6.950,-3.617,-2.744,-1.065,1.411,-9.706,-0.023,0.931,-0.378,1.556,3.235,-0.854,60.000,266438.000,1.000
-2.914,-18.585,-1.647,1.628,0.466,3.899,5.710,-4.748,-0.024,0.931,-0.379,1.617,3.143,-0.763,60.000,266439.000,1.000
-8.123,-5.993,0.277,-5.019,-4.890,2.611,-2.132,-5.591,-0.022,0.930,-0.377,1.709,3.143,-0.763,60.000,266440.000,1.000
-14.221,-2.626,-3.855,-13.056,-12.228,-2.799,-10.504,-10.174,-0.022,0.930,-0.380,1.801,3.113,-0.732,60.000,266441.000,1.000
-13.120,-12.876,-8.666,-10.575,-12.274,-5.069,-7.649,-11.922,-0.023,0.932,-0.377,1.923,3.082,-0.763,60.000,266442.000,1.000
-6.917,-22.740,-8.408,-1.070,-6.167,-1.936,1.795,-9.063,-0.022,0.935,-0.377,2.014,3.021,-0.763,60.000,266443.000,1.000
-5.388,-19.388,-5.076,1.244,-4.181,0.743,3.158,-7.153,-0.024,0.930,-0.383,2.075,2.930,-0.793,60.000,266444.000,1.000
-12.513,-8.729,-5.392,-8.610,-11.399,-2.499,-7.443,-11.009,-0.025,0.933,-0.381,2.136,2.899,-0.824,60.000,266445.000,1.000
-20.660,-6.634,-10.857,-18.853,-20.103,-8.395,-16.743,-17.289,-0.025,0.932,-0.381,2.319,2.808,-0.885,60.000,266446.000,1.000
-20.961,-16.670,-15.359,-16.896,-20.120,-9.098,-12.124,-18.711,-0.025,0.932,-0.377,2.258,2.747,-1.007,60.000,266447.000,1.000
-15.544,-25.264,-13.789,-6.740,-12.964,-3.236,0.785,-14.152,-0.023,0.931,-0.381,2.258,2.686,-1.007,60.000,266448.000,1.000
-14.436,-20.692,-9.343,-3.447,-9.852,1.854,5.448,-10.347,-0.020,0.933,-0.383,2.411,2.625,-1.099,60.000,266449.000,1.000
-21.549,-9.520,-9.311,-12.383,-16.295,-0.103,-3.328,-12.837,-0.021,0.933,-0.384,2.441,2.716,-0.977,60.000,266450.000,1.000
-29.045,-7.555,-14.962,-21.740,-24.382,-5.793,-12.611,-18.468,-0.021,0.932,-0.384,2.502,2.747,-0.854,60.000,266451.000,1.000
-27.834,-17.706,-19.352,-18.551,-23.248,-6.648,-9.055,-19.579,-0.021,0.933,-0.382,2.472,2.625,-0.854,60.000,266452.000,1.000
-20.097,-25.698,-16.511,-6.456,-13.703,-0.473,3.024,-14.398,-0.022,0.933,-0.380,2.472,2.625,-0.916,60.000,266453.000,1.000
-16.574,-19.796,-9.614,-0.765,-7.152,5.440,7.836,-9.475,-0.022,0.933,-0.382,2.380,2.625,-0.946,60.000,266454.000,1.000
-22.131,-7.271,-6.878,-7.550,-10.345,4.010,-0.122,-10.765,-0.023,0.932,-0.386,2.441,2.594,-0.885,60.000,266455.000,1.000
-29.541,-4.869,-10.900,-15.782,-16.991,-2.495,-8.959,-15.791,-0.023,0.933,-0.384,2.502,2.625,-0.854,60.000,266456.000,1.000
-29.678,-16.060,-15.686,-13.078,-17.275,-6.067,-6.407,-17.458,-0.021,0.934,-0.385,2.441,2.625,-0.824,60.000,266457.000,1.000
-23.696,-26.095,-14.957,-2.857,-11.510,-3.833,3.076,-13.848,-0.021,0.935,-0.383,2.289,2.716,-0.732,60.000,266458.000,1.000
-20.727,-21.916,-10.345,0.663,-9.083,-1.298,4.844,-10.504,-0.023,0.937,-0.383,2.258,2.655,-0.671,60.000,266459.000,1.000
-24.640,-9.673,-8.477,-7.525,-14.583,-3.842,-5.079,-12.348,-0.022,0.936,-0.385,2.197,2.594,-0.580,60.000,266460.000,1.000
-28.314,-5.833,-11.271,-15.933,-20.628,-8.618,-13.938,-16.565,-0.023,0.938,-0.384,2.167,2.655,-0.671,60.000,266461.000,1.000
-23.660,-14.486,-13.207,-12.297,-17.658,-8.386,-9.644,-16.480,-0.021,0.936,-0.388,2.014,2.747,-0.671,60.000,266462.000,1.000
-13.739,-22.320,-9.586,-0.812,-7.444,-2.131,2.220,-11.194,-0.021,0.936,-0.385,1.892,2.716,-0.702,60.000,266463.000,1.000
-9.958,-18.088,-4.265,2.883,-1.734,2.351,5.261,-7.693,-0.018,0.936,-0.385,1.740,2.655,-0.641,60.000,266464.000,1.000
-17.484,-9.029,-5.475,-7.443,-7.248,-1.869,-5.925,-11.946,-0.018,0.937,-0.387,1.648,2.686,-0.610,60.000,266465.000,1.000
-28.221,-10.700,-14.552,-19.993,-16.810,-11.371,-18.301,-20.492,-0.019,0.940,-0.386,1.526,2.869,-0.641,60.000,266466.000,1.000
-31.101,-24.467,-23.226,-20.539,-18.920,-16.316,-17.686,-24.304,-0.019,0.938,-0.384,1.465,2.899,-0.641,60.000,266467.000,1.000
-26.125,-34.543,-23.902,-11.270,-13.007,-13.083,-7.556,-20.319,-0.020,0.939,-0.386,1.434,2.899,-0.763,60.000,266468.000,1.000
-23.182,-28.997,-19.049,-7.005,-9.275,-8.379,-3.473,-14.864,-0.022,0.940,-0.388,1.221,2.991,-0.641,60.000,266469.000,1.000
-27.949,-16.047,-17.217,-14.387,-13.757,-9.490,-11.169,-14.576,-0.021,0.939,-0.387,1.099,2.808,-0.610,60.000,266470.000,1.000
-34.554,-13.309,-21.535,-23.054,-19.738,-14.481,-18.882,-17.653,-0.022,0.939,-0.388,0.946,2.960,-0.702,60.000,266471.000,1.000
-34.492,-24.344,-26.122,-20.557,-17.200,-15.509,-14.188,-17.132,-0.021,0.939,-0.388,0.763,2.960,-0.732,60.000,266472.000,1.000
-29.110,-34.432,-24.987,-10.168,-7.081,-10.286,-1.786,-11.313,-0.021,0.937,-0.388,0.610,2.960,-0.732,60.000,266473.000,1.000
-28.068,-31.093,-20.703,-6.650,-0.371,-5.538,2.649,-6.576,-0.019,0.937,-0.387,0.549,2.808,-0.702,60.000,266474.000,1.000
-35.585,-20.848,-20.595,-15.581,-3.045,-7.541,-5.766,-8.440,-0.019,0.939,-0.386,0.458,2.960,-0.671,60.000,266475.000,1.000
-43.960,-19.645,-26.148,-25.276,-8.038,-13.311,-14.297,-13.661,-0.020,0.940,-0.385,0.366,2.960,-0.641,60.000,266476.000,1.000
-43.596,-30.408,-30.471,-22.635,-5.330,-14.738,-10.248,-14.456,-0.021,0.937,-0.385,0.153,2.960,-0.580,60.000,266477.000,1.000
-35.552,-38.516,-27.177,-10.812,4.196,-9.595,1.663,-8.835,-0.021,0.939,-0.387,0.183,2.960,-0.549,60.000,266478.000,1.000
-29.712,-31.771,-18.912,-4.696,9.998,-4.473,5.918,-3.154,-0.021,0.937,-0.385,0.214,2.960,-0.458,60.000,266479.000,1.000
-31.331,-17.435,-14.026,-10.681,6.213,-5.828,-2.595,-3.622,-0.021,0.935,-0.386,0.153,2.991,-0.427,60.000,266480.000,1.000
-34.269,-12.520,-15.655,-18.305,-0.508,-11.265,-11.839,-8.170,-0.020,0.935,-0.385,0.000,2.930,-0.305,60.000,266481.000,1.000
-30.262,-20.825,-18.249,-15.324,-0.574,-13.199,-9.667,-9.860,-0.019,0.933,-0.383,-0.031,3.021,-0.427,60.000,266482.000,1.000
-21.321,-28.398,-16.165,-5.289,4.785,-9.849,-1.062,-6.983,-0.021,0.934,-0.384,0.000,2.960,-0.458,60.000,266483.000,1.000
-17.566,-23.269,-11.843,-2.830,5.131,-7.911,-1.298,-5.469,-0.020,0.935,-0.387,-0.031,2.991,-0.488,60.000,266484.000,1.000
-23.369,-11.992,-12.158,-13.086,-4.258,-13.049,-14.338,-10.228,-0.021,0.934,-0.386,-0.061,3.021,-0.488,60.000,266485.000,1.000
-31.196,-10.403,-18.382,-24.099,-15.139,-21.579,-26.660,-17.754,-0.022,0.931,-0.385,0.092,3.052,-0.488,60.000,266486.000,1.000
-31.650,-21.494,-23.905,-22.839,-16.995,-25.010,-25.287,-20.417,-0.020,0.931,-0.382,0.122,3.113,-0.458,60.000,266487.000,1.000
-25.905,-30.986,-23.005,-12.783,-11.021,-21.259,-15.217,-16.604,-0.020,0.930,-0.383,0.061,3.052,-0.427,60.000,266488.000,1.000
-23.568,-26.815,-18.609,-8.872,-8.223,-17.154,-12.246,-12.747,-0.021,0.929,-0.381,0.305,3.021,-0.366,60.000,266489.000,1.000
-29.109,-15.672,-18.211,-16.758,-14.228,-18.800,-21.033,-14.377,-0.018,0.928,-0.381,0.275,3.021,-0.366,60.000,266490.000,1.000
-35.799,-13.815,-23.583,-25.102,-21.732,-23.221,-28.754,-18.623,-0.019,0.926,-0.380,0.427,3.082,-0.366,60.000,266491.000,1.000
-35.359,-24.802,-28.463,-21.649,-20.891,-22.877,-23.124,-18.538,-0.020,0.928,-0.380,0.397,3.082,-0.488,60.000,266492.000,1.000
-29.474,-34.536,-27.128,-10.565,-13.039,-16.510,-9.666,-13.007,-0.019,0.927,-0.383,0.519,3.174,-0.427,60.000,266493.000,1.000
-27.076,-30.425,-21.942,-6.733,-8.749,-11.148,-4.264,-8.386,-0.020,0.930,-0.382,0.580,3.235,-0.519,60.000,266494.000,1.000
-31.309,-18.208,-19.631,-14.981,-13.064,-12.479,-11.355,-9.664,-0.018,0.931,-0.384,0.671,3.235,-0.366,60.000,266495.000,1.000
-34.504,-13.339,-21.571,-23.100,-18.397,-16.827,-17.872,-13.396,-0.018,0.930,-0.382,0.702,3.204,-0.366,60.000,266496.000,1.000
-28.598,-19.406,-21.826,-18.371,-15.130,-16.011,-11.408,-12.338,-0.019,0.931,-0.381,0.763,3.265,-0.336,60.000,266497.000,1.000
-16.841,-23.695,-15.808,-4.920,-5.368,-8.695,2.344,-5.556,-0.017,0.931,-0.381,0.763,3.235,-0.366,60.000,266498.000,1.000
-10.303,-15.687,-7.399,1.784,-0.602,-2.561,7.048,-0.001,-0.017,0.932,-0.385,0.885,3.265,-0.458,60.000,266499.000,1.000
-13.466,-2.399,-4.351,-4.289,-6.201,-4.103,-2.048,-1.195,-0.017,0.931,-0.383,0.916,3.387,-0.397,60.000,266500.000,1.000
-18.237,1.018,-7.867,-11.837,-13.832,-9.795,-11.562,-5.658,-0.016,0.932,-0.380,0.946,3.418,-0.427,60.000,266501.000,1.000
-14.652,-7.491,-10.688,-7.919,-12.360,-10.737,-8.116,-5.509,-0.017,0.933,-0.381,1.007,3.479,-0.366,60.000,266502.000,1.000
-4.173,-13.681,-6.764,4.142,-2.746,-4.730,3.497,0.752,-0.017,0.934,-0.382,1.038,3.601,-0.275,60.000,266503.000,1.000
2.188,-6.969,0.350,9.256,3.172,0.503,6.912,5.941,-0.019,0.933,-0.381,1.038,3.571,-0.244,60.000,266504.000,1.000
-1.460,4.269,2.165,1.395,-1.449,-2.403,-3.417,3.786,-0.019,0.935,-0.382,1.160,3.540,-0.061,60.000,266505.000,1.000
-8.145,4.127,-3.008,-7.888,-9.305,-10.363,-14.589,-2.436,-0.018,0.934,-0.379,1.068,3.540,-0.153,60.000,266506.000,1.000
-7.701,-8.282,-7.387,-5.079,-8.928,-13.721,-12.784,-4.013,-0.018,0.934,-0.379,1.038,3.601,-0.092,60.000,266507.000,1.000
-0.544,-16.768,-4.062,6.865,-0.189,-8.961,-1.859,1.750,-0.017,0.934,-0.379,0.977,3.784,-0.214,60.000,266508.000,1.000
3.372,-9.706,3.716,12.678,5.870,-2.944,2.424,8.253,-0.017,0.934,-0.378,1.099,3.754,-0.153,60.000,266509.000,1.000
-1.374,4.178,6.895,5.707,2.338,-3.198,-5.711,8.792,-0.017,0.936,-0.380,1.129,3.906,-0.183,60.000,266510.000,1.000
-8.274,7.351,2.517,-3.365,-4.513,-7.954,-14.434,5.446,-0.018,0.932,-0.383,1.099,3.876,-0.092,60.000,266511.000,1.000
-8.165,-3.258,-2.924,-1.788,-4.673,-9.408,-11.264,5.526,-0.017,0.933,-0.381,1.099,3.937,-0.214,60.000,266512.000,1.000
-1.955,-12.634,-2.739,7.487,1.312,-5.127,-0.737,10.899,-0.018,0.931,-0.381,1.160,3.937,-0.061,60.000,266513.000,1.000
0.990,-8.308,1.106,10.270,3.312,-1.440,1.981,15.279,-0.018,0.933,-0.382,1.099,3.937,-0.061,60.000,266514.000,1.000
-3.641,3.087,1.504,1.394,-3.659,-4.135,-7.345,13.126,-0.017,0.935,-0.379,1.190,4.028,-0.031,60.000,266515.000,1.000
-8.920,5.619,-3.410,-7.775,-11.877,-9.868,-15.643,7.414,-0.017,0.935,-0.380,1.251,3.937,-0.092,60.000,266516.000,1.000
-6.785,-3.874,-7.796,-5.276,-11.425,-10.669,-10.576,5.347,-0.015,0.934,-0.380,1.221,3.967,-0.153,60.000,266517.000,1.000
0.040,-11.745,-6.675,4.504,-4.103,-5.205,2.070,8.240,-0.017,0.934,-0.383,1.251,3.876,-0.092,60.000,266518.000,1.000
1.404,-6.739,-3.204,6.707,-1.164,-0.879,6.050,9.877,-0.019,0.934,-0.382,1.251,3.845,-0.122,60.000,266519.000,1.000
-6.301,4.105,-4.493,-3.556,-7.975,-3.851,-3.222,5.406,-0.018,0.934,-0.383,1.312,3.876,-0.153,60.000,266520.000,1.000
-14.850,5.063,-11.600,-14.349,-16.639,-10.611,-12.538,-1.626,-0.020,0.934,-0.380,1.129,3.754,-0.214,60.000,266521.000,1.000
-14.790,-6.144,-17.390,-12.875,-16.541,-12.459,-8.933,-3.758,-0.019,0.936,-0.380,1.129,3.723,-0.305,60.000,266522.000,1.000
-7.693,-14.598,-15.624,-2.598,-8.474,-6.949,2.836,0.352,-0.020,0.937,-0.382,1.099,3.723,-0.580,60.000,266523.000,1.000
-3.438,-8.385,-9.081,1.939,-3.145,-0.841,7.215,4.137,-0.021,0.937,-0.381,1.099,3.510,-0.610,60.000,266524.000,1.000
-6.208,5.274,-5.393,-4.371,-6.077,-0.475,-0.401,2.319,-0.021,0.938,-0.379,0.946,3.418,-0.549,60.000,266525.000,1.000
-8.769,10.067,-6.502,-9.994,-9.972,-3.076,-7.302,-1.666,-0.021,0.938,-0.381,0.793,3.387,-0.641,60.000,266526.000,1.000
-3.173,2.606,-6.645,-3.263,-5.471,-1.346,-1.628,-0.694,-0.020,0.938,-0.380,0.793,3.387,-0.702,60.000,266527.000,1.000
7.193,-3.726,-1.400,10.429,4.834,5.317,10.305,5.563,-0.020,0.938,-0.380,0.702,3.357,-0.732,60.000,266528.000,1.000
11.282,2.014,5.245,15.047,9.127,9.157,12.100,9.570,-0.020,0.937,-0.381,0.671,3.235,-0.824,60.000,266529.000,1.000
4.964,12.775,5.852,5.398,2.345,4.496,-0.171,5.970,-0.018,0.937,-0.382,0.549,3.235,-0.885,60.000,266530.000,1.000
-3.232,13.362,-0.138,-5.675,-6.592,-4.025,-12.037,-0.921,-0.018,0.938,-0.385,0.458,3.174,-0.824,60.000,266531.000,1.000
-3.017,2.217,-4.831,-4.188,-6.220,-6.770,-9.476,-2.399,-0.016,0.938,-0.381,0.305,3.021,-0.946,60.000,266532.000,1.000
4.613,-5.347,-1.618,6.951,2.805,-1.033,3.114,3.617,-0.018,0.938,-0.378,0.183,3.021,-0.854,60.000,266533.000,1.000
9.400,2.303,6.417,12.846,9.298,6.081,9.800,10.332,-0.017,0.938,-0.380,0.061,3.052,-0.763,60.000,266534.000,1.000
5.685,16.723,10.408,6.908,6.545,7.171,4.657,11.075,-0.019,0.940,-0.379,0.092,2.930,-0.824,60.000,266535.000,1.000
-0.673,20.125,6.907,-1.173,0.398,3.636,-1.411,7.432,-0.020,0.937,-0.380,-0.031,2.960,-0.824,60.000,266536.000,1.000
-1.124,9.061,1.769,0.219,0.230,2.656,2.962,6.179,-0.019,0.938,-0.382,-0.092,2.869,-0.824,60.000,266537.000,1.000
3.590,-1.323,1.654,8.166,5.544,6.504,13.031,9.547,-0.019,0.939,-0.376,-0.214,2.777,-0.763,60.000,266538.000,1.000
4.859,1.740,4.915,9.468,6.692,9.022,14.143,12.210,-0.018,0.938,-0.376,-0.244,2.808,-0.793,60.000,266539.000,1.000
-1.074,11.541,4.529,-0.228,-1.249,4.326,2.330,9.165,-0.018,0.938,-0.381,-0.458,2.777,-0.732,60.000,266540.000,1.000
-7.109,12.004,-1.350,-9.327,-10.911,-4.404,-9.400,3.341,-0.018,0.937,-0.381,-0.366,2.838,-0.671,60.000,266541.000,1.000
-4.808,0.559,-6.292,-5.743,-12.261,-8.597,-8.230,1.962,-0.016,0.937,-0.380,-0.336,2.869,-0.610,60.000,266542.000,1.000
3.623,-7.992,-4.339,6.240,-6.214,-5.502,1.343,6.599,-0.017,0.935,-0.379,-0.458,2.869,-0.549,60.000,266543.000,1.000
7.900,-1.945,1.599,11.320,-3.313,-1.535,4.083,10.791,-0.015,0.934,-0.377,-0.458,2.808,-0.580,60.000,266544.000,1.000
3.504,10.893,3.496,3.699,-9.197,-3.199,-4.805,8.694,-0.017,0.932,-0.377,-0.488,2.808,-0.549,60.000,266545.000,1.000
-2.330,13.702,-0.940,-5.359,-16.855,-8.139,-13.137,2.958,-0.016,0.931,-0.375,-0.488,2.777,-0.519,60.000,266546.000,1.000
-0.734,3.592,-5.337,-3.325,-16.407,-8.713,-8.866,0.973,-0.020,0.932,-0.377,-0.427,2.747,-0.519,60.000,266547.000,1.000
6.633,-4.657,-3.626,6.307,-8.885,-3.000,2.918,4.666,-0.019,0.929,-0.378,-0.397,2.808,-0.519,60.000,266548.000,1.000
10.074,0.820,1.583,9.108,-4.857,2.265,6.837,7.982,-0.017,0.929,-0.380,-0.336,2.869,-0.549,60.000,266549.000,1.000
5.209,12.455,2.642,-0.091,-9.810,0.955,-1.549,5.419,-0.020,0.929,-0.380,-0.305,2.808,-0.671,60.000,266550.000,1.000
-1.230,13.641,-2.589,-9.907,-16.571,-3.888,-9.559,-0.233,-0.019,0.928,-0.375,-0.122,2.869,-0.702,60.000,266551.000,1.000
-0.969,1.679,-7.869,-8.062,-15.300,-4.195,-4.933,-1.721,-0.021,0.927,-0.375,0.000,2.716,-0.641,60.000,266552.000,1.000
4.055,-8.532,-7.405,1.545,-7.312,1.795,6.981,2.468,-0.020,0.929,-0.376,0.153,2.838,-0.641,60.000,266553.000,1.000
4.335,-4.861,-3.772,4.317,-3.194,7.031,10.574,6.079,-0.018,0.930,-0.381,0.183,2.808,-0.641,60.000,266554.000,1.000
-3.522,5.997,-3.690,-4.392,-7.590,5.737,1.963,4.236,-0.016,0.931,-0.381,0.244,2.930,-0.580,60.000,266555.000,1.000
-11.551,8.311,-8.132,-12.587,-12.333,1.575,-5.371,0.481,-0.017,0.934,-0.379,0.275,2.960,-0.549,60.000,266556.000,1.000
-11.171,-0.916,-10.792,-8.329,-7.774,2.346,0.602,1.697,-0.017,0.932,-0.380,0.458,2.930,-0.519,60.000,266557.000,1.000
-4.813,-7.969,-6.795,3.654,3.601,8.882,13.533,8.268,-0.016,0.930,-0.380,0.488,2.869,-0.549,60.000,266558.000,1.000
-2.317,-1.621,0.433,8.460,10.168,13.615,17.174,13.171,-0.015,0.930,-0.382,0.458,2.930,-0.366,60.000,266559.000,1.000
-7.138,11.170,3.655,1.475,6.715,10.808,7.544,11.299,-0.015,0.931,-0.378,0.610,3.021,-0.336,60.000,266560.000,1.000
-11.390,14.855,1.623,-5.457,1.263,4.452,-1.669,6.342,-0.016,0.931,-0.384,0.732,3.082,-0.519,60.000,266561.000,1.000
-6.788,6.809,0.629,-0.583,3.839,2.955,2.162,5.773,-0.017,0.932,-0.381,0.885,3.082,-0.488,60.000,266562.000,1.000
3.521,0.844,5.531,11.254,12.579,7.812,13.424,10.619,-0.016,0.934,-0.379,0.854,3.143,-0.458,60.000,266563.000,1.000
8.554,7.680,12.545,14.856,16.229,11.608,16.088,13.974,-0.015,0.934,-0.379,0.916,3.204,-0.427,60.000,266564.000,1.000
3.739,19.508,13.860,5.268,9.558,8.074,5.689,10.318,-0.011,0.934,-0.378,0.916,3.174,-0.458,60.000,266565.000,1.000
-3.236,20.546,8.179,-5.267,0.693,0.706,-4.579,3.113,-0.011,0.933,-0.379,1.038,3.296,-0.519,60.000,266566.000,1.000
-2.763,9.183,2.837,-3.622,0.313,-1.755,-1.889,0.343,-0.010,0.932,-0.380,1.099,3.418,-0.427,60.000,266567.000,1.000
3.992,0.736,4.189,6.628,7.299,2.971,8.728,3.851,-0.010,0.933,-0.380,1.160,3.448,-0.397,60.000,266568.000,1.000
7.253,6.719,9.236,10.403,10.435,7.764,11.483,7.003,-0.010,0.935,-0.380,1.221,3.632,-0.336,60.000,266569.000,1.000
2.608,19.173,10.027,2.018,3.898,6.037,1.749,3.975,-0.009,0.936,-0.379,1.251,3.754,-0.336,60.000,266570.000,1.000
-2.765,21.480,4.674,-7.109,-4.823,0.706,-7.552,-2.202,-0.010,0.936,-0.377,1.343,3.937,-0.336,60.000,266571.000,1.000
-0.456,10.665,-0.424,-4.726,-5.633,-0.358,-4.106,-4.144,-0.010,0.937,-0.381,1.312,4.089,-0.427,60.000,266572.000,1.000
6.760,0.717,-0.019,4.692,-0.182,4.071,6.320,-0.793,-0.007,0.937,-0.378,1.343,4.303,-0.549,60.000,266573.000,1.000
8.219,2.842,2.475,5.916,0.435,6.515,7.705,0.974,-0.009,0.937,-0.376,1.373,4.333,-0.549,60.000,266574.000,1.000
0.080,10.157,-0.037,-5.699,-8.518,1.250,-3.831,-3.891,-0.010,0.935,-0.376,1.404,4.425,-0.671,60.000,266575.000,1.000
-8.907,7.968,-7.848,-17.188,-18.181,-7.261,-14.195,-11.107,-0.010,0.935,-0.375,1.465,4.639,-0.610,60.000,266576.000,1.000
-8.493,-4.601,-12.953,-14.971,-17.428,-9.541,-10.060,-12.194,-0.012,0.935,-0.378,1.373,4.730,-0.824,60.000,266577.000,1.000
0.104,-11.998,-8.990,-2.680,-7.335,-3.035,3.462,-5.397,-0.012,0.935,-0.378,1.404,4.852,-0.916,60.000,266578.000,1.000
6.512,-3.034,0.455,4.235,0.640,5.005,10.166,2.159,-0.014,0.934,-0.376,1.434,4.974,-1.099,60.000,266579.000,1.000
5.124,13.307,6.286,-0.664,-0.055,7.275,4.655,3.778,-0.015,0.936,-0.378,1.465,5.035,-1.312,60.000,266580.000,1.000
1.587,18.993,5.083,-7.125,-3.286,5.417,-1.318,1.242,-0.014,0.938,-0.381,1.526,5.127,-1.282,60.000,266581.000,1.000
3.578,10.212,2.254,-3.624,-0.095,6.391,3.785,1.110,-0.015,0.937,-0.378,1.556,5.219,-1.343,60.000,266582.000,1.000
9.367,1.549,3.653,6.129,8.151,11.996,14.882,5.115,-0.014,0.937,-0.377,1.465,5.188,-1.556,60.000,266583.000,1.000
10.296,5.664,7.530,8.575,11.684,16.284,17.594,8.076,-0.015,0.936,-0.377,1.526,5.310,-1.587,60.000,266584.000,1.000
3.602,16.382,7.736,-0.105,6.402,14.194,8.781,5.872,-0.016,0.936,-0.378,1.526,5.463,-1.678,60.000,266585.000,1.000
-2.418,18.307,3.486,-7.528,0.446,9.273,1.654,2.205,-0.015,0.938,-0.378,1.465,5.493,-1.709,60.000,266586.000,1.000
1.351,9.240,1.730,-1.234,3.872,9.534,8.101,4.386,-0.016,0.938,-0.379,1.404,5.646,-1.801,60.000,266587.000,1.000
12.614,3.704,8.057,14.215,15.015,16.532,22.103,13.274,-0.015,0.936,-0.378,1.343,5.615,-1.831,60.000,266588.000,1.000
20.252,12.385,18.460,22.710,22.169,22.622,27.155,21.149,-0.014,0.937,-0.378,1.312,5.676,-1.770,60.000,266589.000,1.000
18.674,26.507,23.945,17.682,18.892,20.813,18.120,21.128,-0.014,0.938,-0.378,1.282,5.676,-1.923,60.000,266590.000,1.000
14.570,29.340,22.098,10.162,12.275,14.056,7.810,15.738,-0.014,0.938,-0.375,1.190,5.768,-1.801,60.000,266591.000,1.000
17.099,19.072,19.850,13.034,12.880,11.206,9.300,13.090,-0.015,0.939,-0.377,1.129,5.737,-1.923,60.000,266592.000,1.000
25.306,11.494,23.751,23.389,20.335,15.208,18.358,15.997,-0.019,0.940,-0.377,1.068,5.859,-1.801,60.000,266593.000,1.000
29.764,18.682,31.045,27.022,24.327,19.578,19.977,18.763,-0.019,0.939,-0.373,0.916,5.798,-1.740,60.000,266594.000,1.000
25.884,32.833,33.635,18.545,19.310,17.801,9.666,15.717,-0.019,0.941,-0.374,0.732,5.798,-1.740,60.000,266595.000,1.000
20.443,36.970,29.308,9.176,12.305,12.437,-0.062,9.486,-0.020,0.940,-0.375,0.793,5.707,-1.678,60.000,266596.000,1.000
21.978,27.385,24.410,11.101,12.738,11.058,2.778,7.176,-0.021,0.939,-0.373,0.702,5.737,-1.709,60.000,266597.000,1.000
28.452,17.551,24.492,20.199,18.666,14.943,12.533,9.933,-0.021,0.937,-0.374,0.610,5.646,-1.526,60.000,266598.000,1.000
29.957,18.907,26.529,21.684,19.139,16.937,13.532,11.069,-0.022,0.937,-0.374,0.488,5.615,-1.495,60.000,266599.000,1.000
22.755,25.242,23.520,10.844,9.569,11.551,1.956,5.494,-0.023,0.936,-0.375,0.366,5.493,-1.312,60.000,266600.000,1.000
14.795,22.177,14.779,-0.162,-1.377,3.023,-8.571,-2.892,-0.023,0.936,-0.375,0.458,5.310,-1.282,60.000,266601.000,1.000
15.019,8.391,7.612,1.193,-2.968,0.147,-5.418,-6.085,-0.024,0.935,-0.375,0.397,5.249,-1.129,60.000,266602.000,1.000
21.384,-1.366,7.991,10.869,3.587,4.833,6.046,-2.406,-0.024,0.936,-0.376,0.427,5.188,-1.160,60.000,266603.000,1.000
23.966,3.697,12.745,14.148,7.254,9.759,10.119,1.660,-0.025,0.936,-0.375,0.427,4.974,-1.007,60.000,266604.000,1.000
18.614,14.973,13.872,6.037,2.296,8.202,2.315,0.488,-0.025,0.935,-0.375,0.336,4.822,-1.038,60.000,266605.000,1.000
12.344,15.495,9.118,-2.015,-4.317,2.715,-4.851,-3.238,-0.027,0.935,-0.372,0.427,4.669,-0.977,60.000,266606.000,1.000
13.194,2.673,4.439,1.644,-3.203,0.958,0.312,-2.795,-0.027,0.936,-0.373,0.366,4.456,-1.038,60.000,266607.000,1.000
18.559,-8.543,5.065,12.153,3.784,4.551,11.920,2.597,-0.027,0.936,-0.374,0.336,4.303,-1.068,60.000,266608.000,1.000
18.348,-6.357,7.845,14.407,5.781,6.637,14.271,6.211,-0.026,0.936,-0.379,0.397,4.120,-0.946,60.000,266609.000,1.000
8.984,2.013,5.698,3.948,-1.875,1.688,3.602,3.084,-0.026,0.937,-0.376,0.397,3.784,-0.824,60.000,266610.000,1.000
-1.158,0.911,-2.199,-6.619,-10.793,-6.351,-6.494,-2.913,-0.026,0.938,-0.375,0.427,3.632,-0.763,60.000,266611.000,1.000
-2.565,-11.530,-8.682,-4.606,-10.610,-8.974,-3.490,-4.038,-0.026,0.938,-0.374,0.488,3.479,-0.793,60.000,266612.000,1.000
3.075,-20.287,-7.822,5.783,-2.741,-4.317,7.247,1.117,-0.026,0.936,-0.373,0.549,3.326,-0.641,60.000,266613.000,1.000
5.607,-14.149,-2.784,9.471,1.776,0.384,10.076,5.845,-0.025,0.938,-0.373,0.610,3.082,-0.641,60.000,266614.000,1.000
0.255,-1.593,-1.596,1.104,-2.751,-1.569,0.521,4.379,-0.025,0.937,-0.375,0.702,2.960,-0.610,60.000,266615.000,1.000
-6.327,0.346,-6.458,-7.911,-9.350,-7.669,-8.908,-0.501,-0.025,0.937,-0.374,0.671,2.808,-0.549,60.000,266616.000,1.000
-5.888,-11.106,-11.283,-5.551,-8.788,-10.377,-6.563,-1.808,-0.025,0.936,-0.371,0.793,2.533,-0.519,60.000,266617.000,1.000
-0.307,-21.098,-10.595,3.913,-3.008,-8.076,1.714,1.513,-0.026,0.936,-0.374,0.854,2.350,-0.427,60.000,266618.000,1.000
1.324,-17.422,-7.022,5.947,-2.464,-7.165,0.711,3.074,-0.025,0.935,-0.371,0.916,2.380,-0.458,60.000,266619.000,1.000
-3.876,-6.379,-6.873,-3.573,-10.876,-12.280,-12.347,-1.612,-0.024,0.935,-0.374,0.793,2.075,-0.397,60.000,266620.000,1.000
-7.784,-2.906,-10.422,-12.064,-18.979,-18.705,-22.946,-8.224,-0.021,0.934,-0.375,0.824,2.014,-0.366,60.000,266621.000,1.000
-2.255,-9.324,-10.932,-7.370,-16.508,-18.086,-18.592,-9.104,-0.021,0.936,-0.379,0.916,1.953,-0.336,60.000,266622.000,1.000
9.167,-12.352,-4.013,5.320,-6.146,-9.806,-5.815,-3.681,-0.021,0.935,-0.377,0.885,1.831,-0.275,60.000,266623.000,1.000
15.110,-2.544,5.492,10.069,-0.355,-2.462,-1.549,0.394,-0.019,0.936,-0.379,0.916,1.709,-0.214,60.000,266624.000,1.000
11.008,11.196,8.919,1.421,-5.185,-3.155,-10.633,-2.869,-0.019,0.936,-0.377,0.977,1.617,-0.244,60.000,266625.000,1.000
5.015,13.006,4.852,-8.433,-12.669,-8.559,-19.731,-9.885,-0.016,0.937,-0.375,1.160,1.617,-0.275,60.000,266626.000,1.000
7.097,2.057,1.026,-6.215,-11.873,-9.588,-15.629,-12.110,-0.017,0.933,-0.376,1.190,1.556,-0.153,60.000,266627.000,1.000
15.988,-5.493,4.261,4.830,-3.407,-3.332,-2.814,-7.012,-0.015,0.932,-0.376,1.373,1.617,-0.122,60.000,266628.000,1.000
21.514,2.032,11.793,10.178,2.190,3.662,3.416,-0.731,-0.017,0.930,-0.380,1.465,1.526,-0.122,60.000,266629.000,1.000
18.646,16.036,15.489,4.408,-0.589,4.710,-1.756,0.727,-0.013,0.930,-0.379,1.648,1.617,-0.092,60.000,266630.000,1.000
13.977,19.383,13.079,-1.435,-4.690,1.953,-6.462,-0.517,-0.014,0.930,-0.381,1.831,1.617,-0.122,60.000,266631.000,1.000
15.891,9.428,10.780,4.303,-0.822,2.541,0.441,1.905,-0.016,0.929,-0.379,1.801,1.587,-0.183,60.000,266632.000,1.000
22.149,0.657,13.686,16.664,8.656,7.490,12.619,8.388,-0.016,0.931,-0.377,1.862,1.648,-0.153,60.000,266633.000,1.000
22.536,3.900,17.874,19.928,12.106,9.446,14.161,11.785,-0.018,0.930,-0.378,1.953,1.587,-0.244,60.000,266634.000,1.000
13.077,11.228,15.529,8.991,4.348,2.932,1.634,7.134,-0.018,0.929,-0.379,2.045,1.617,-0.397,60.000,266635.000,1.000
1.923,7.262,5.820,-3.493,-6.132,-7.411,-10.566,-1.054,-0.016,0.930,-0.378,2.136,1.556,-0.366,60.000,266636.000,1.000
-1.235,-8.739,-3.425,-4.076,-8.440,-12.213,-9.193,-4.240,-0.017,0.929,-0.380,2.289,1.648,-0.519,60.000,266637.000,1.000
2.407,-20.612,-5.508,3.858,-3.446,-9.128,0.622,-0.699,-0.016,0.930,-0.380,2.350,1.617,-0.671,60.000,266638.000,1.000
3.374,-16.492,-3.010,5.760,-1.657,-5.190,3.272,2.783,-0.015,0.931,-0.378,2.533,1.678,-0.671,60.000,266639.000,1.000
-2.342,-4.540,-3.414,-3.365,-8.052,-6.798,-5.501,0.511,-0.014,0.932,-0.377,2.533,1.801,-0.763,60.000,266640.000,1.000
-7.475,-1.521,-8.326,-11.846,-14.895,-11.056,-12.898,-4.346,-0.013,0.930,-0.380,2.472,1.831,-0.916,60.000,266641.000,1.000
-3.789,-10.104,-11.370,-7.765,-12.592,-10.331,-7.300,-4.518,-0.013,0.930,-0.383,2.563,1.862,-1.099,60.000,266642.000,1.000
5.625,-16.255,-7.817,3.726,-3.735,-3.793,4.701,0.552,-0.012,0.929,-0.381,2.655,1.923,-1.068,60.000,266643.000,1.000
9.562,-9.759,-2.155,6.651,-0.480,0.469,6.445,3.164,-0.011,0.930,-0.379,2.655,1.984,-1.038,60.000,266644.000,1.000
3.545,1.035,-2.581,-4.211,-8.433,-3.902,-6.355,-2.493,-0.011,0.932,-0.380,2.777,2.136,-1.129,60.000,266645.000,1.000
-4.160,0.657,-9.894,-16.241,-19.129,-12.808,-19.772,-12.460,-0.010,0.934,-0.380,2.838,2.228,-1.160,60.000,266646.000,1.000
-3.637,-11.666,-15.995,-16.004,-21.242,-16.837,-20.317,-18.027,-0.010,0.938,-0.383,2.716,2.350,-1.251,60.000,266647.000,1.000
3.735,-20.105,-14.178,-6.887,-15.187,-13.332,-12.426,-16.719,-0.012,0.938,-0.383,2.777,2.380,-1.160,60.000,266648.000,1.000
7.852,-13.454,-7.617,-3.528,-11.566,-9.261,-11.198,-14.643,-0.012,0.938,-0.386,2.625,2.563,-1.129,60.000,266649.000,1.000
4.004,-0.450,-4.765,-11.183,-16.055,-11.270,-20.891,-17.406,-0.013,0.936,-0.387,2.625,2.625,-1.129,60.000,266650.000,1.000
-0.951,2.047,-7.991,-18.588,-21.629,-16.607,-28.974,-22.243,-0.015,0.936,-0.385,2.625,2.747,-0.946,60.000,266651.000,1.000
1.450,-8.060,-10.825,-13.971,-18.614,-17.160,-23.680,-22.079,-0.014,0.937,-0.384,2.594,2.808,-0.977,60.000,266652.000,1.000
9.249,-15.393,-7.209,-1.763,-8.270,-10.685,-10.469,-15.646,-0.014,0.935,-0.386,2.594,2.899,-0.946,60.000,266653.000,1.000
12.841,-8.132,0.276,3.387,-0.879,-3.558,-4.400,-9.379,-0.015,0.932,-0.384,2.686,2.930,-0.946,60.000,266654.000,1.000
8.698,6.154,4.465,-2.972,-1.110,-1.467,-9.046,-8.483,-0.016,0.933,-0.383,2.625,2.991,-0.946,60.000,266655.000,1.000
4.594,11.315,3.822,-8.807,-1.431,-1.394,-11.486,-9.811,-0.017,0.933,-0.381,2.533,2.991,-0.885,60.000,266656.000,1.000
8.640,4.717,4.265,-2.443,6.943,3.639,-0.650,-6.606,-0.019,0.932,-0.382,2.472,3.021,-1.007,60.000,266657.000,1.000
17.392,0.100,10.138,10.772,20.835,13.787,16.414,1.551,-0.020,0.933,-0.385,2.502,3.082,-0.977,60.000,266658.000,1.000
19.958,7.617,17.307,15.334,28.359,20.962,23.262,7.622,-0.019,0.935,-0.383,2.502,3.052,-1.007,60.000,266659.000,1.000
12.714,19.076,18.350,6.745,24.590,19.206,16.086,6.627,-0.019,0.933,-0.383,2.411,3.021,-1.007,60.000,266660.000,1.000
4.417,19.073,12.879,-2.157,18.244,12.762,8.776,2.667,-0.020,0.935,-0.385,2.197,3.082,-0.916,60.000,266661.000,1.000
4.785,6.747,8.742,1.576,20.136,10.702,14.011,3.664,-0.022,0.938,-0.385,2.197,3.052,-1.007,60.000,266662.000,1.000
11.957,-2.188,12.025,13.719,28.932,15.163,26.208,10.738,-0.024,0.938,-0.383,2.228,3.082,-1.129,60.000,266663.000,1.000
15.549,3.453,19.090,18.958,33.370,18.923,29.461,16.591,-0.021,0.942,-0.383,2.167,2.930,-1.007,60.000,266664.000,1.000
10.910,15.011,21.437,11.812,27.713,15.474,19.365,15.172,-0.022,0.945,-0.385,2.014,2.899,-0.977,60.000,266665.000,1.000
5.131,15.809,16.911,3.742,19.288,7.862,8.781,9.539,-0.023,0.946,-0.385,1.740,2.930,-0.977,60.000,266666.000,1.000
6.888,4.071,12.158,6.956,18.123,4.388,9.921,7.401,-0.024,0.945,-0.382,1.556,2.838,-0.946,60.000,266667.000,1.000
14.376,-4.547,13.270,17.529,23.318,7.335,17.722,10.678,-0.024,0.944,-0.382,1.251,2.686,-1.007,60.000,266668.000,1.000
17.871,1.557,17.513,21.051,24.840,10.169,17.355,13.261,-0.024,0.945,-0.383,1.068,2.625,-1.068,60.000,266669.000,1.000
13.207,13.983,17.385,12.762,17.945,6.895,5.239,9.796,-0.022,0.944,-0.383,0.854,2.594,-1.068,60.000,266670.000,1.000
7.561,15.874,11.293,4.191,10.034,0.528,-5.645,3.272,-0.022,0.943,-0.382,0.671,2.563,-0.916,60.000,266671.000,1.000
9.271,4.833,5.816,6.963,10.220,-1.250,-3.682,0.766,-0.022,0.943,-0.385,0.580,2.502,-0.946,60.000,266672.000,1.000
15.772,-4.306,6.417,16.237,16.192,2.854,5.066,3.322,-0.023,0.940,-0.383,0.397,2.380,-0.885,60.000,266673.000,1.000
16.874,-0.177,9.847,17.185,17.150,5.812,5.211,4.455,-0.021,0.940,-0.384,0.214,2.319,-0.885,60.000,266674.000,1.000
8.983,9.675,8.824,5.649,8.953,2.194,-6.376,-0.573,-0.022,0.940,-0.384,0.061,2.167,-0.854,60.000,266675.000,1.000
0.314,9.592,2.191,-5.870,0.179,-4.147,-15.946,-7.907,-0.023,0.938,-0.385,0.000,2.136,-0.854,60.000,266676.000,1.000
-0.232,-2.292,-3.550,-5.319,0.456,-5.382,-11.789,-10.305,-0.022,0.937,-0.383,-0.061,2.075,-0.702,60.000,266677.000,1.000
4.914,-11.310,-3.315,2.426,7.194,-0.565,-0.476,-7.096,-0.021,0.938,-0.384,-0.183,2.075,-0.732,60.000,266678.000,1.000
5.643,-6.396,-0.436,2.569,9.181,3.113,2.240,-4.960,-0.020,0.936,-0.383,-0.244,1.984,-0.763,60.000,266679.000,1.000
-1.701,4.836,-1.843,-8.770,2.255,0.487,-6.597,-8.372,-0.021,0.935,-0.383,-0.244,1.923,-0.641,60.000,266680.000,1.000
-9.246,6.897,-8.077,-18.689,-4.528,-4.039,-12.717,-12.964,-0.022,0.933,-0.381,-0.214,2.014,-0.671,60.000,266681.000,1.000
-8.382,-1.861,-12.005,-14.776,-0.817,-2.126,-3.964,-11.125,-0.021,0.932,-0.384,-0.153,1.984,-0.702,60.000,266682.000,1.000
-1.442,-6.810,-8.206,-1.878,11.195,7.230,13.067,-2.293,-0.021,0.930,-0.383,-0.092,1.862,-0.641,60.000,266683.000,1.000
1.563,2.427,-0.375,4.544,19.727,16.024,21.797,6.015,-0.020,0.929,-0.385,-0.092,1.862,-0.641,60.000,266684.000,1.000
-3.494,16.828,3.379,-0.780,18.917,17.392,17.580,7.781,-0.019,0.931,-0.383,0.000,1.740,-0.580,60.000,266685.000,1.000
-9.453,19.500,1.057,-6.480,15.752,13.907,12.821,5.752,-0.019,0.932,-0.382,0.092,1.801,-0.519,60.000,266686.000,1.000
-7.907,8.306,-1.152,-1.051,19.328,13.064,18.719,6.769,-0.018,0.931,-0.383,0.183,1.709,-0.458,60.000,266687.000,1.000
-0.820,-1.424,2.105,10.758,27.651,16.512,29.244,11.863,-0.020,0.933,-0.382,0.183,1.892,-0.458,60.000,266688.000,1.000
2.402,2.270,7.846,14.472,30.398,18.043,29.623,14.895,-0.020,0.932,-0.381,0.305,1.862,-0.397,60.000,266689.000,1.000
-1.738,12.212,9.097,6.189,23.680,12.960,17.435,11.491,-0.019,0.932,-0.380,0.488,1.801,-0.427,60.000,266690.000,1.000
-5.809,12.797,4.883,-1.658,16.073,5.499,6.792,5.637,-0.019,0.932,-0.381,0.366,1.862,-0.458,60.000,266691.000,1.000
-1.981,2.000,1.799,2.705,17.198,3.574,9.449,4.491,-0.019,0.933,-0.378,0.458,1.862,-0.336,60.000,266692.000,1.000
6.515,-5.898,4.834,13.976,24.452,7.891,18.703,8.421,-0.019,0.933,-0.379,0.519,1.862,-0.366,60.000,266693.000,1.000
9.251,-0.516,10.175,16.766,26.282,10.537,18.335,10.114,-0.018,0.935,-0.377,0.641,1.923,-0.336,60.000,266694.000,1.000
2.711,9.818,10.161,6.581,17.762,5.378,4.568,4.330,-0.016,0.933,-0.381,0.641,1.984,-0.275,60.000,266695.000,1.000
-4.643,9.550,3.926,-3.848,7.406,-3.560,-8.760,-4.702,-0.017,0.934,-0.382,0.641,2.014,-0.336,60.000,266696.000,1.000
-3.484,-2.274,-1.026,-1.704,5.800,-7.314,-8.884,-8.483,-0.015,0.933,-0.383,0.793,1.953,-0.366,60.000,266697.000,1.000
3.956,-10.464,1.060,8.505,11.285,-4.074,-1.308,-5.438,-0.016,0.934,-0.383,0.824,1.984,-0.305,60.000,266698.000,1.000
7.027,-4.756,6.217,11.153,12.363,-1.553,-1.858,-2.853,-0.016,0.936,-0.381,0.824,2.075,-0.397,60.000,266699.000,1.000
0.973,5.714,6.001,0.821,3.576,-6.284,-14.551,-6.849,-0.015,0.934,-0.382,0.916,2.167,-0.244,60.000,266700.000,1.000
-7.121,4.693,-1.226,-10.629,-7.090,-14.635,-25.926,-14.180,-0.014,0.935,-0.383,0.824,2.228,-0.305,60.000,266701.000,1.000
-8.580,-8.848,-8.319,-10.690,-9.306,-17.726,-23.484,-16.865,-0.017,0.935,-0.382,0.885,2.228,-0.275,60.000,266702.000,1.000
-5.169,-18.997,-9.129,-3.254,-4.367,-13.262,-12.527,-12.910,-0.016,0.934,-0.382,0.824,2.319,-0.275,60.000,266703.000,1.000
-6.290,-14.444,-6.592,-2.595,-2.842,-8.166,-8.264,-8.458,-0.017,0.934,-0.380,0.763,2.319,-0.214,60.000,266704.000,1.000
-15.393,-3.772,-8.176,-12.987,-9.517,-8.791,-14.542,-8.859,-0.015,0.934,-0.378,0.824,2.502,-0.183,60.000,266705.000,1.000
-24.594,-3.426,-15.162,-22.412,-16.568,-12.343,-18.761,-11.246,-0.017,0.932,-0.378,0.854,2.563,-0.305,60.000,266706.000,1.000
-25.271,-15.100,-20.694,-19.187,-14.453,-11.296,-9.958,-8.991,-0.017,0.932,-0.382,0.885,2.563,-0.336,60.000,266707.000,1.000
-20.022,-23.666,-19.278,-8.447,-5.451,-4.432,5.118,-1.708,-0.017,0.934,-0.381,0.977,2.594,-0.305,60.000,266708.000,1.000
-19.050,-18.124,-14.317,-5.305,-0.772,1.205,10.638,3.575,-0.015,0.933,-0.382,0.916,2.533,-0.305,60.000,266709.000,1.000
-25.938,-6.664,-13.322,-14.083,-5.195,0.098,3.217,1.823,-0.016,0.932,-0.384,0.885,2.594,-0.427,60.000,266710.000,1.000
-32.683,-5.280,-17.613,-22.475,-10.588,-4.017,-3.558,-3.139,-0.015,0.934,-0.380,0.854,2.594,-0.488,60.000,266711.000,1.000
-30.540,-15.407,-20.500,-18.431,-7.034,-3.074,2.284,-3.628,-0.016,0.933,-0.381,0.977,2.747,-0.488,60.000,266712.000,1.000
-21.552,-21.394,-16.339,-6.393,3.798,4.487,15.023,1.885,-0.015,0.934,-0.381,0.977,2.716,-0.549,60.000,266713.000,1.000
-15.273,-11.686,-8.071,-0.716,11.268,11.731,19.637,7.229,-0.019,0.935,-0.379,0.885,2.716,-0.549,60.000,266714.000,1.000
-15.530,5.307,-3.006,-5.610,10.487,12.741,12.820,7.343,-0.017,0.936,-0.377,0.916,2.716,-0.671,60.000,266715.000,1.000
-15.616,12.338,-2.962,-9.567,8.483,10.278,7.259,5.000,-0.019,0.933,-0.379,0.946,2.777,-0.763,60.000,266716.000,1.000
-8.451,6.076,-2.410,-1.944,13.415,11.100,13.280,6.208,-0.018,0.934,-0.379,0.946,2.869,-0.702,60.000,266717.000,1.000
2.589,0.461,3.062,11.481,22.234,15.791,23.670,11.052,-0.017,0.934,-0.382,0.916,2.930,-0.641,60.000,266718.000,1.000
7.545,6.536,9.977,15.854,24.287,17.571,23.134,13.086,-0.019,0.934,-0.381,1.068,2.930,-0.702,60.000,266719.000,1.000
3.408,17.055,11.519,7.571,16.142,11.947,9.614,8.401,-0.018,0.934,-0.378,0.977,2.930,-0.732,60.000,266720.000,1.000
-1.548,17.055,7.108,-0.572,7.001,3.687,-2.147,1.674,-0.019,0.931,-0.380,0.977,2.930,-0.702,60.000,266721.000,1.000
1.108,5.305,3.574,3.233,6.807,1.072,-0.094,0.451,-0.019,0.933,-0.379,1.007,2.930,-0.824,60.000,266722.000,1.000
8.600,-3.474,5.995,13.732,13.017,4.933,9.078,5.153,-0.018,0.935,-0.381,0.977,2.960,-0.732,60.000,266723.000,1.000
10.824,0.959,10.566,15.839,14.024,7.316,9.128,8.297,-0.019,0.937,-0.382,0.946,2.960,-0.763,60.000,266724.000,1.000
4.118,9.763,9.539,5.266,4.731,1.848,-3.808,4.193,-0.018,0.938,-0.385,1.038,2.930,-0.916,60.000,266725.000,1.000
-3.755,7.019,1.874,-5.535,-6.649,-7.887,-16.287,-3.668,-0.020,0.938,-0.386,0.946,2.930,-0.824,60.000,266726.000,1.000
-4.142,-7.996,-5.000,-4.227,-9.727,-13.230,-16.119,-7.442,-0.020,0.938,-0.385,1.068,3.021,-0.763,60.000,266727.000,1.000
0.808,-19.214,-4.999,4.746,-5.802,-11.944,-8.824,-5.446,-0.019,0.935,-0.379,0.977,2.960,-0.793,60.000,266728.000,1.000
1.499,-15.198,-1.262,6.637,-5.387,-10.519,-9.297,-3.897,-0.017,0.934,-0.378,0.916,2.960,-0.702,60.000,266729.000,1.000
-5.260,-4.051,-1.202,-2.880,-12.915,-14.235,-20.313,-7.532,-0.019,0.936,-0.380,0.885,3.052,-0.610,60.000,266730.000,1.000
-11.248,-1.521,-5.777,-11.469,-20.015,-19.057,-27.875,-12.354,-0.020,0.934,-0.379,0.824,3.082,-0.671,60.000,266731.000,1.000
-7.964,-9.137,-8.098,-7.178,-16.920,-16.950,-20.194,-10.867,-0.022,0.934,-0.382,0.977,3.021,-0.671,60.000,266732.000,1.000
1.240,-12.832,-3.475,4.649,-6.448,-7.484,-4.349,-2.800,-0.021,0.934,-0.380,0.885,3.021,-0.702,60.000,266733.000,1.000
5.017,-3.591,3.260,8.185,-0.933,0.609,2.643,3.751,-0.020,0.935,-0.379,0.885,3.052,-0.580,60.000,266734.000,1.000
-1.112,8.952,3.614,-1.484,-5.986,0.509,-3.640,2.696,-0.019,0.934,-0.378,0.946,2.869,-0.580,60.000,266735.000,1.000
-9.343,8.894,-3.590,-12.032,-13.520,-4.185,-9.948,-2.475,-0.021,0.932,-0.380,0.885,2.777,-0.671,60.000,266736.000,1.000
-10.704,-4.324,-10.897,-11.084,-13.334,-4.928,-4.402,-4.047,-0.021,0.930,-0.377,0.916,2.716,-0.641,60.000,266737.000,1.000
-7.022,-14.646,-12.048,-2.897,-6.929,0.108,7.029,-0.643,-0.020,0.930,-0.380,0.977,2.808,-0.671,60.000,266738.000,1.000
-7.477,-10.661,-9.693,-1.722,-4.753,4.018,9.199,1.430,-0.021,0.932,-0.378,0.977,2.808,-0.702,60.000,266739.000,1.000
-14.749,-0.329,-10.597,-11.256,-10.963,1.361,-0.625,-2.315,-0.020,0.931,-0.378,1.007,2.777,-0.732,60.000,266740.000,1.000
-20.231,0.865,-15.328,-18.868,-17.031,-3.783,-8.380,-7.649,-0.019,0.931,-0.381,0.946,2.686,-0.671,60.000,266741.000,1.000
-15.620,-8.473,-17.190,-13.037,-13.412,-3.356,-2.453,-7.222,-0.018,0.928,-0.385,1.038,2.563,-0.763,60.000,266742.000,1.000
-4.970,-14.038,-11.896,0.209,-3.063,3.309,10.105,-0.863,-0.016,0.927,-0.383,1.038,2.533,-0.671,60.000,266743.000,1.000
-0.092,-6.177,-4.287,4.955,2.098,8.176,12.966,3.790,-0.016,0.929,-0.384,1.282,2.533,-0.610,60.000,266744.000,1.000
-5.359,5.962,-2.663,-3.319,-3.116,4.998,2.445,1.164,-0.016,0.930,-0.384,1.312,2.625,-0.549,60.000,266745.000,1.000
-12.477,6.333,-8.182,-12.058,-10.761,-2.665,-8.041,-5.214,-0.018,0.930,-0.385,1.404,2.655,-0.549,60.000,266746.000,1.000
-11.977,-6.065,-13.492,-9.069,-11.088,-6.558,-6.717,-7.802,-0.017,0.932,-0.385,1.404,2.625,-0.519,60.000,266747.000,1.000
-5.658,-15.473,-12.453,0.993,-5.824,-4.824,0.598,-5.153,-0.015,0.935,-0.385,1.373,2.625,-0.580,60.000,266748.000,1.000
-3.264,-10.572,-7.859,3.578,-5.189,-3.928,-0.793,-3.280,-0.017,0.932,-0.383,1.404,2.625,-0.549,60.000,266749.000,1.000
-8.534,0.363,-6.948,-5.355,-13.135,-9.085,-13.464,-6.754,-0.017,0.935,-0.385,1.526,2.655,-0.549,60.000,266750.000,1.000
-13.940,1.250,-11.061,-13.650,-21.333,-16.489,-23.704,-11.995,-0.018,0.935,-0.388,1.556,2.655,-0.610,60.000,266751.000,1.000
-11.134,-9.313,-13.671,-9.679,-20.228,-18.097,-19.960,-12.025,-0.018,0.936,-0.386,1.495,2.747,-0.641,60.000,266752.000,1.000
-2.712,-16.182,-9.683,1.476,-12.182,-12.671,-8.714,-6.348,-0.013,0.935,-0.383,1.648,2.777,-0.488,60.000,266753.000,1.000
1.036,-9.039,-3.021,4.749,-8.510,-7.794,-5.843,-2.249,-0.016,0.936,-0.380,1.587,2.563,-0.580,60.000,266754.000,1.000
-3.939,2.889,-1.671,-4.364,-14.191,-9.772,-15.089,-5.309,-0.016,0.938,-0.383,1.617,2.625,-0.641,60.000,266755.000,1.000
-10.058,3.324,-6.830,-13.698,-21.229,-15.192,-23.188,-11.930,-0.016,0.938,-0.386,1.648,2.625,-0.732,60.000,266756.000,1.000
-8.709,-8.678,-11.187,-11.151,-19.863,-15.847,-18.348,-14.138,-0.015,0.938,-0.386,1.587,2.686,-0.702,60.000,266757.000,1.000
-2.217,-17.474,-8.893,-1.258,-12.246,-10.300,-6.668,-10.233,-0.016,0.940,-0.387,1.343,2.686,-0.793,60.000,266758.000,1.000
-0.599,-12.407,-3.527,1.276,-9.633,-6.017,-3.736,-6.709,-0.015,0.939,-0.382,1.343,2.655,-0.854,60.000,266759.000,1.000
-7.665,-2.354,-3.079,-7.919,-16.841,-9.035,-12.995,-8.934,-0.015,0.941,-0.378,1.221,2.716,-0.916,60.000,266760.000,1.000
-15.899,-3.465,-9.122,-16.985,-25.647,-15.719,-21.094,-13.839,-0.016,0.942,-0.383,1.129,2.625,-1.007,60.000,266761.000,1.000
-17.020,-16.977,-15.037,-14.624,-26.219,-17.929,-16.657,-14.695,-0.016,0.942,-0.381,0.946,2.686,-1.068,60.000,266762.000,1.000
-13.198,-27.265,-15.148,-5.833,-20.357,-13.992,-6.008,-10.769,-0.015,0.943,-0.381,0.793,2.594,-1.160,60.000,266763.000,1.000
-13.360,-22.777,-11.983,-4.603,-18.213,-10.239,-3.913,-8.153,-0.016,0.943,-0.383,0.702,2.625,-1.221,60.000,266764.000,1.000
-19.986,-11.142,-11.862,-13.862,-23.365,-11.332,-12.404,-10.773,-0.017,0.942,-0.382,0.519,2.686,-1.099,60.000,266765.000,1.000
-24.921,-7.859,-15.256,-20.645,-27.233,-13.127,-17.288,-14.285,-0.017,0.943,-0.384,0.336,2.655,-1.160,60.000,266766.000,1.000
-20.304,-14.596,-15.697,-13.572,-20.854,-8.352,-7.585,-11.671,-0.018,0.941,-0.384,0.214,2.747,-1.190,60.000,266767.000,1.000
-9.694,-17.313,-8.980,1.226,-7.849,2.612,8.782,-3.124,-0.016,0.940,-0.383,0.122,2.869,-1.190,60.000,266768.000,1.000
-3.756,-6.587,0.281,7.906,-0.334,11.143,15.037,3.589,-0.016,0.938,-0.380,0.122,2.686,-1.129,60.000,266769.000,1.000
-6.115,8.424,4.222,2.051,-2.980,11.322,7.891,3.201,-0.017,0.938,-0.384,-0.061,2.777,-0.977,60.000,266770.000,1.000
-8.802,11.952,1.971,-3.854,-7.006,7.565,1.534,-0.255,-0.019,0.936,-0.382,-0.061,2.777,-1.038,60.000,266771.000,1.000
-3.644,3.100,0.490,1.949,-2.383,8.463,7.889,0.779,-0.019,0.936,-0.384,-0.092,2.930,-0.977,60.000,266772.000,1.000
6.099,-2.920,4.820,14.095,8.440,15.156,20.328,6.975,-0.019,0.937,-0.382,-0.214,2.930,-1.038,60.000,266773.000,1.000
9.780,4.134,10.924,17.352,13.828,19.811,22.887,11.136,-0.017,0.937,-0.379,-0.244,2.838,-1.007,60.000,266774.000,1.000
3.595,15.244,11.014,7.412,8.639,16.196,12.085,7.899,-0.019,0.935,-0.381,-0.244,2.991,-0.916,60.000,266775.000,1.000
-4.180,14.636,4.311,-3.171,0.929,8.118,1.551,1.040,-0.021,0.933,-0.376,-0.336,2.991,-0.916,60.000,266776.000,1.000
-4.064,1.832,-1.557,-2.011,0.654,4.217,3.211,-1.620,-0.020,0.933,-0.378,-0.427,2.991,-0.885,60.000,266777.000,1.000
2.396,-7.288,-0.546,6.550,6.098,6.360,11.045,1.300,-0.020,0.930,-0.375,-0.397,2.899,-0.793,60.000,266778.000,1.000
5.607,-1.986,4.077,8.131,6.790,7.612,9.902,3.362,-0.021,0.930,-0.379,-0.366,3.021,-0.732,60.000,266779.000,1.000
1.689,8.832,4.708,-1.230,-1.346,2.380,-2.994,-0.290,-0.019,0.928,-0.379,-0.366,3.021,-0.702,60.000,266780.000,1.000
-2.155,9.085,0.094,-9.324,-9.791,-5.447,-13.732,-5.933,-0.020,0.929,-0.376,-0.305,3.052,-0.793,60.000,266781.000,1.000
2.023,-2.187,-2.928,-4.677,-8.820,-7.580,-10.554,-6.271,-0.020,0.930,-0.375,-0.275,2.991,-0.702,60.000,266782.000,1.000
11.448,-9.358,1.126,7.400,-0.684,-2.491,0.287,-0.423,-0.021,0.930,-0.375,-0.153,3.052,-0.671,60.000,266783.000,1.000
16.189,-1.561,8.932,12.045,3.748,2.835,3.613,5.018,-0.020,0.931,-0.378,-0.214,2.899,-0.641,60.000,266784.000,1.000
12.702,12.342,12.933,5.222,0.020,2.641,-3.538,5.107,-0.019,0.932,-0.375,-0.244,2.930,-0.610,60.000,266785.000,1.000
8.344,15.552,11.320,-1.163,-4.245,-0.167,-8.278,2.964,-0.021,0.932,-0.376,-0.122,2.991,-0.549,60.000,266786.000,1.000
10.873,5.865,9.869,3.810,-0.558,1.179,-0.436,4.852,-0.019,0.933,-0.375,-0.153,2.960,-0.549,60.000,266787.000,1.000
17.701,-1.810,13.430,14.745,8.136,7.308,12.713,10.996,-0.018,0.933,-0.377,-0.122,3.021,-0.488,60.000,266788.000,1.000
19.693,3.627,18.876,17.303,11.093,11.425,16.009,14.889,-0.018,0.934,-0.377,-0.122,2.991,-0.458,60.000,266789.000,1.000
14.165,14.173,19.426,8.133,4.484,8.629,7.192,12.180,-0.016,0.934,-0.376,-0.092,2.991,-0.397,60.000,266790.000,1.000
8.886,14.065,14.275,-0.296,-3.170,2.893,0.157,6.882,-0.018,0.936,-0.376,0.000,2.991,-0.366,60.000,266791.000,1.000
11.203,1.714,9.838,3.089,-2.635,1.663,5.804,6.009,-0.019,0.935,-0.374,-0.061,3.021,-0.427,60.000,266792.000,1.000
17.283,-8.262,10.670,12.393,3.216,5.302,16.657,9.787,-0.018,0.935,-0.375,-0.061,3.021,-0.397,60.000,266793.000,1.000
16.813,-5.415,12.870,12.642,3.360,6.260,16.744,11.120,-0.018,0.937,-0.376,-0.061,2.960,-0.336,60.000,266794.000,1.000
7.121,2.262,9.407,0.467,-5.913,-0.551,3.424,5.325,-0.017,0.936,-0.378,-0.031,2.960,-0.397,60.000,266795.000,1.000
-2.671,-0.009,0.177,-10.891,-15.410,-10.349,-8.786,-3.179,-0.015,0.938,-0.377,0.061,3.143,-0.397,60.000,266796.000,1.000
-3.214,-12.333,-6.907,-9.063,-14.954,-14.133,-7.441,-6.265,-0.016,0.936,-0.378,0.031,3.143,-0.427,60.000,266797.000,1.000
3.285,-18.998,-5.656,1.309,-6.612,-9.928,1.796,-2.409,-0.016,0.939,-0.377,0.000,3.021,-0.336,60.000,266798.000,1.000
6.615,-9.966,0.448,5.351,-1.588,-4.908,3.669,1.657,-0.017,0.939,-0.377,0.153,2.991,-0.427,60.000,266799.000,1.000
2.345,4.689,2.825,-1.878,-5.183,-5.689,-5.654,0.043,-0.016,0.938,-0.378,0.183,3.082,-0.519,60.000,266800.000,1.000
-2.742,7.884,-1.012,-9.283,-10.125,-9.787,-13.787,-4.652,-0.017,0.937,-0.377,0.153,3.021,-0.427,60.000,266801.000,1.000
-0.740,-1.637,-4.843,-5.806,-7.234,-9.785,-9.918,-5.511,-0.016,0.938,-0.376,0.122,2.991,-0.427,60.000,266802.000,1.000
5.937,-8.133,-3.097,3.722,1.388,-4.301,-0.384,-1.370,-0.017,0.939,-0.377,0.275,2.991,-0.519,60.000,266803.000,1.000
7.803,-0.791,1.170,5.198,5.081,-0.252,-0.104,1.434,-0.017,0.939,-0.375,0.275,3.082,-0.519,60.000,266804.000,1.000
1.776,11.638,0.909,-4.744,-0.351,-3.054,-11.554,-1.840,-0.020,0.938,-0.376,0.336,3.113,-0.488,60.000,266805.000,1.000
-4.021,13.491,-4.344,-13.260,-6.263,-8.474,-20.555,-7.167,-0.020,0.937,-0.377,0.305,3.052,-0.519,60.000,266806.000,1.000
-1.343,4.102,-7.279,-8.568,-2.781,-8.009,-15.294,-6.951,-0.021,0.936,-0.379,0.336,2.960,-0.641,60.000,266807.000,1.000
6.214,-1.711,-3.183,3.422,7.216,-0.840,-2.752,-0.809,-0.020,0.937,-0.373,0.305,2.899,-0.580,60.000,266808.000,1.000
7.409,5.113,2.781,6.522,11.411,4.466,0.509,3.338,-0.018,0.938,-0.373,0.366,2.930,-0.702,60.000,266809.000,1.000
-1.503,14.788,1.964,-3.985,4.556,1.343,-9.127,-0.182,-0.017,0.938,-0.374,0.397,2.960,-0.671,60.000,266810.000,1.000
-11.416,12.115,-6.200,-15.061,-4.420,-5.865,-17.479,-7.029,-0.017,0.937,-0.377,0.397,2.991,-0.641,60.000,266811.000,1.000
-12.174,-1.945,-13.130,-13.579,-4.328,-7.587,-11.922,-8.484,-0.019,0.934,-0.377,0.488,3.052,-0.671,60.000,266812.000,1.000
-5.533,-10.498,-12.033,-3.617,3.755,-1.490,1.699,-2.808,-0.018,0.932,-0.378,0.458,2.930,-0.641,60.000,266813.000,1.000
-1.789,-2.924,-6.098,0.199,9.028,5.161,7.705,3.092,-0.017,0.932,-0.377,0.610,2.991,-0.519,60.000,266814.000,1.000
-5.095,11.166,-3.148,-6.371,6.548,6.014,2.440,3.617,-0.017,0.930,-0.376,0.671,2.869,-0.549,60.000,266815.000,1.000
-8.042,15.052,-4.666,-11.352,3.895,4.039,-1.196,1.915,-0.017,0.929,-0.375,0.885,2.930,-0.488,60.000,266816.000,1.000
-2.856,6.947,-4.498,-3.929,9.695,6.253,7.271,4.520,-0.015,0.928,-0.377,1.068,2.930,-0.488,60.000,266817.000,1.000
6.893,1.225,1.507,9.563,20.478,12.758,20.267,11.257,-0.019,0.928,-0.377,1.190,3.143,-0.336,60.000,266818.000,1.000
10.800,7.916,8.965,13.805,24.757,16.013,22.175,15.040,-0.019,0.930,-0.377,1.312,3.113,-0.397,60.000,266819.000,1.000
5.988,18.791,10.616,5.463,18.648,11.317,11.009,11.717,-0.021,0.931,-0.376,1.465,3.113,-0.397,60.000,266820.000,1.000
1.003,18.788,6.031,-2.445,10.981,3.462,1.277,5.823,-0.020,0.928,-0.372,1.526,3.143,-0.397,60.000,266821.000,1.000
3.931,6.927,2.048,1.307,10.946,0.306,4.077,4.344,-0.021,0.929,-0.376,1.678,3.082,-0.580,60.000,266822.000,1.000
11.333,-2.132,3.496,10.790,15.556,2.274,12.081,7.282,-0.022,0.929,-0.376,1.770,3.113,-0.702,60.000,266823.000,1.000
12.992,1.671,6.685,11.291,14.006,2.002,9.873,7.746,-0.022,0.930,-0.377,1.892,2.960,-0.885,60.000,266824.000,1.000
5.717,9.782,4.506,-0.306,2.829,-5.437,-4.728,1.407,-0.022,0.931,-0.380,1.953,2.808,-0.824,60.000,266825.000,1.000
-2.355,7.106,-3.479,-10.889,-8.672,-15.328,-17.343,-7.215,-0.021,0.932,-0.376,2.045,2.747,-0.946,60.000,266826.000,1.000
-2.622,-6.353,-9.728,-8.536,-10.168,-18.899,-16.108,-10.214,-0.022,0.934,-0.375,2.136,2.625,-0.977,60.000,266827.000,1.000
2.506,-14.783,-8.543,1.499,-3.677,-14.588,-7.347,-6.545,-0.022,0.936,-0.378,2.014,2.594,-0.977,60.000,266828.000,1.000
3.217,-8.192,-3.703,4.076,-0.433,-9.842,-6.503,-3.255,-0.020,0.936,-0.381,2.045,2.502,-1.099,60.000,266829.000,1.000
-3.744,3.750,-3.107,-4.982,-5.326,-10.734,-16.614,-5.725,-0.020,0.936,-0.380,2.014,2.563,-1.038,60.000,266830.000,1.000
-10.347,4.789,-7.926,-13.285,-10.439,-13.815,-24.134,-10.389,-0.018,0.937,-0.377,2.045,2.625,-1.038,60.000,266831.000,1.000
-8.476,-5.898,-11.257,-9.193,-6.496,-11.349,-17.793,-9.861,-0.017,0.937,-0.379,2.106,2.625,-0.946,60.000,266832.000,1.000
-1.148,-12.660,-7.700,2.286,4.079,-2.261,-4.063,-3.001,-0.018,0.937,-0.380,2.075,2.533,-1.068,60.000,266833.000,1.000
1.466,-5.061,-0.929,6.549,10.246,6.039,1.821,3.590,-0.015,0.938,-0.378,2.045,2.625,-0.946,60.000,266834.000,1.000
-4.555,7.275,0.817,-0.847,6.893,7.113,-3.598,4.227,-0.017,0.940,-0.379,2.106,2.686,-0.946,60.000,266835.000,1.000
-11.971,7.601,-4.394,-8.596,1.253,3.665,-7.862,1.415,-0.016,0.941,-0.375,2.014,2.716,-0.885,60.000,266836.000,1.000
-12.531,-4.985,-9.713,-5.650,2.564,3.357,-0.358,1.955,-0.015,0.941,-0.377,1.953,2.747,-0.610,60.000,266837.000,1.000
-8.296,-14.430,-9.017,3.302,9.077,7.924,12.466,7.185,-0.015,0.939,-0.376,1.953,2.808,-0.732,60.000,266838.000,1.000
-8.288,-9.760,-5.011,4.584,10.608,10.889,15.822,11.135,-0.014,0.939,-0.379,1.801,2.991,-0.610,60.000,266839.000,1.000
-15.131,0.382,-4.655,-4.740,3.250,7.153,7.369,9.333,-0.014,0.938,-0.381,1.862,3.082,-0.610,60.000,266840.000,1.000
-20.541,0.513,-8.695,-11.897,-4.475,0.855,0.977,5.689,-0.014,0.938,-0.380,1.862,3.174,-0.458,60.000,266841.000,1.000
-16.352,-9.810,-10.388,-5.690,-3.083,0.035,7.718,7.292,-0.013,0.938,-0.377,1.770,3.235,-0.366,60.000,266842.000,1.000
-5.979,-15.360,-5.178,7.710,4.599,5.400,20.257,14.189,-0.011,0.939,-0.375,1.740,3.357,-0.397,60.000,266843.000,1.000
-0.127,-6.455,2.538,12.776,7.179,9.162,22.639,18.755,-0.012,0.939,-0.375,1.648,3.418,-0.458,60.000,266844.000,1.000
-2.467,7.403,5.151,5.634,0.415,5.747,12.125,15.830,-0.012,0.936,-0.375,1.617,3.632,-0.366,60.000,266845.000,1.000
-5.037,10.298,2.142,-0.894,-6.933,-0.461,2.936,9.686,-0.012,0.934,-0.372,1.587,3.784,-0.305,60.000,266846.000,1.000
0.265,1.465,0.663,4.815,-5.265,-1.135,6.736,8.202,-0.011,0.931,-0.374,1.648,3.906,-0.214,60.000,266847.000,1.000
9.902,-4.192,5.398,16.925,2.349,4.395,16.676,12.164,-0.009,0.927,-0.375,1.862,4.028,-0.122,60.000,266848.000,1.000
13.143,2.828,11.770,20.078,4.110,8.038,17.056,14.474,-0.008,0.926,-0.377,2.014,4.303,-0.183,60.000,266849.000,1.000
6.480,12.980,11.709,10.269,-4.737,3.614,4.904,9.916,-0.009,0.926,-0.379,2.228,4.608,-0.214,60.000,266850.000,1.000
-2.166,10.158,3.875,-0.425,-16.199,-5.567,-6.642,1.663,-0.011,0.927,-0.375,2.319,4.761,-0.275,60.000,266851.000,1.000
-4.562,-6.222,-4.940,-0.996,-20.908,-11.788,-7.007,-3.645,-0.011,0.926,-0.375,2.472,4.944,-0.336,60.000,266852.000,1.000
-2.841,-19.595,-8.629,3.718,-20.299,-13.044,-2.474,-4.821,-0.011,0.924,-0.374,2.563,5.066,-0.336,60.000,266853.000,1.000
-5.356,-17.789,-8.980,0.770,-23.176,-14.552,-6.516,-6.889,-0.010,0.926,-0.376,2.777,5.249,-0.458,60.000,266854.000,1.000
-13.797,-8.383,-11.703,-11.653,-31.933,-19.977,-19.839,-12.924,-0.015,0.927,-0.378,2.960,5.432,-0.488,60.000,266855.000,1.000
-19.713,-7.052,-17.191,-20.473,-37.936,-24.903,-28.107,-18.608,-0.015,0.929,-0.375,3.052,5.493,-0.549,60.000,266856.000,1.000
-15.682,-15.394,-19.267,-15.118,-32.892,-22.058,-20.953,-17.522,-0.015,0.932,-0.375,3.204,5.585,-0.580,60.000,266857.000,1.000
-6.046,-19.157,-14.074,-2.462,-20.799,-11.524,-6.462,-10.291,-0.017,0.934,-0.378,3.326,5.646,-0.519,60.000,266858.000,1.000
-2.199,-9.261,-6.669,1.543,-13.740,-1.792,-1.067,-4.787,-0.017,0.934,-0.378,3.265,5.768,-0.702,60.000,266859.000,1.000
-8.202,4.200,-5.382,-7.286,-16.492,0.534,-8.046,-6.345,-0.020,0.936,-0.377,3.326,5.859,-0.793,60.000,266860.000,1.000
-15.896,5.009,-11.011,-16.224,-20.615,-1.216,-13.729,-10.912,-0.019,0.939,-0.378,3.387,5.829,-0.793,60.000,266861.000,1.000
-15.943,-6.906,-15.558,-13.096,-16.117,1.093,-6.535,-10.499,-0.021,0.939,-0.376,3.357,5.768,-0.977,60.000,266862.000,1.000
-9.756,-14.891,-12.455,-2.391,-4.878,9.118,7.281,-3.677,-0.021,0.938,-0.379,3.326,5.707,-0.916,60.000,266863.000,1.000
-6.501,-7.933,-4.795,1.646,2.254,15.913,12.526,2.860,-0.025,0.940,-0.375,3.174,5.615,-1.007,60.000,266864.000,1.000
-9.731,4.767,-0.546,-4.927,0.516,15.721,6.138,3.574,-0.025,0.939,-0.376,3.204,5.493,-0.977,60.000,266865.000,1.000
-12.254,7.091,-1.390,-10.190,-2.196,12.189,1.404,1.532,-0.024,0.938,-0.381,3.235,5.402,-1.007,60.000,266866.000,1.000
-6.508,-1.578,-0.761,-3.122,3.581,13.368,9.385,3.714,-0.024,0.938,-0.380,3.082,5.249,-0.885,60.000,266867.000,1.000
4.119,-5.871,6.356,10.556,15.462,20.386,23.286,10.777,-0.026,0.939,-0.380,3.113,5.127,-0.946,60.000,266868.000,1.000
9.438,3.914,15.979,15.930,22.365,25.791,27.729,15.894,-0.024,0.938,-0.382,3.052,5.005,-0.916,60.000,266869.000,1.000
6.530,18.101,20.403,9.457,19.732,23.856,19.991,14.220,-0.025,0.937,-0.382,3.052,4.822,-0.946,60.000,266870.000,1.000
3.848,20.608,18.548,3.695,15.416,18.236,13.441,9.478,-0.025,0.938,-0.380,2.869,4.700,-0.885,60.000,266871.000,1.000
9.504,10.734,17.036,9.593,18.179,16.457,18.497,8.510,-0.025,0.939,-0.382,2.869,4.578,-0.824,60.000,266872.000,1.000
20.035,3.874,20.697,21.067,25.065,19.157,27.733,11.562,-0.026,0.937,-0.382,2.808,4.425,-0.824,60.000,266873.000,1.000
25.129,10.218,25.765,23.308,25.320,19.154,25.955,11.941,-0.024,0.936,-0.381,2.655,4.303,-0.854,60.000,266874.000,1.000
21.520,20.746,25.092,13.214,15.466,11.620,11.387,5.523,-0.025,0.934,-0.382,2.625,4.181,-0.763,60.000,266875.000,1.000
16.855,19.739,18.090,3.623,4.520,1.194,-1.409,-3.125,-0.023,0.933,-0.382,2.502,3.998,-0.702,60.000,266876.000,1.000
18.686,6.701,11.803,5.683,2.176,-3.686,-0.888,-6.420,-0.022,0.931,-0.379,2.502,3.845,-0.702,60.000,266877.000,1.000
23.809,-2.735,11.468,13.602,6.035,-1.715,6.269,-3.686,-0.025,0.933,-0.383,2.502,3.662,-0.671,60.000,266878.000,1.000
22.342,1.387,13.218,12.480,5.079,-0.403,4.566,-2.151,-0.025,0.933,-0.387,2.502,3.326,-0.671,60.000,266879.000,1.000
11.426,9.412,9.401,-1.191,-5.099,-5.871,-9.030,-7.360,-0.024,0.932,-0.386,2.441,3.174,-0.549,60.000,266880.000,1.000
0.114,5.823,-0.331,-14.200,-15.897,-14.342,-20.850,-15.669,-0.023,0.935,-0.386,2.380,3.174,-0.519,60.000,266881.000,1.000
-1.854,-8.610,-7.790,-14.104,-17.136,-17.220,-19.261,-19.197,-0.024,0.936,-0.385,2.350,2.899,-0.458,60.000,266882.000,1.000
3.559,-17.219,-6.867,-5.629,-10.633,-12.838,-10.472,-16.368,-0.025,0.936,-0.384,2.228,2.716,-0.458,60.000,266883.000,1.000
6.120,-9.891,-1.336,-3.336,-7.082,-8.428,-9.314,-13.334,-0.024,0.938,-0.382,2.197,2.563,-0.519,60.000,266884.000,1.000
1.547,3.164,0.649,-11.002,-10.839,-9.771,-17.975,-14.565,-0.024,0.938,-0.386,2.014,2.502,-0.549,60.000,266885.000,1.000
-3.297,5.069,-2.564,-16.589,-14.026,-13.234,-22.642,-16.154,-0.022,0.937,-0.386,1.984,2.502,-0.427,60.000,266886.000,1.000
-1.127,-5.398,-4.773,-9.665,-8.134,-11.275,-12.935,-11.436,-0.021,0.935,-0.385,1.801,2.350,-0.366,60.000,266887.000,1.000
4.631,-12.974,-1.420,3.254,3.338,-3.404,3.029,-0.942,-0.021,0.933,-0.385,1.862,2.228,-0.336,60.000,266888.000,1.000
4.153,-7.304,3.592,6.994,9.034,2.800,9.039,7.399,-0.021,0.933,-0.384,1.709,2.106,-0.336,60.000,266889.000,1.000
-5.178,2.788,3.039,-1.883,4.840,1.770,2.183,8.100,-0.022,0.938,-0.383,1.587,2.106,-0.244,60.000,266890.000,1.000
-14.798,1.806,-3.570,-10.618,-0.774,-2.678,-3.981,4.740,-0.021,0.938,-0.385,1.495,1.892,-0.336,60.000,266891.000,1.000
-15.945,-10.266,-8.716,-7.539,1.810,-2.490,1.731,4.821,-0.020,0.936,-0.385,1.373,1.831,-0.336,60.000,266892.000,1.000
-10.703,-17.151,-6.424,2.557,10.713,3.948,13.227,9.893,-0.019,0.936,-0.387,1.221,1.648,-0.275,60.000,266893.000,1.000
-8.235,-8.298,0.160,5.811,15.825,10.061,16.397,14.201,-0.019,0.936,-0.386,1.160,1.617,-0.336,60.000,266894.000,1.000
-11.657,6.582,3.369,-1.128,13.143,10.430,9.248,13.263,-0.018,0.937,-0.387,1.099,1.770,-0.305,60.000,266895.000,1.000
-13.799,10.569,1.347,-6.652,10.155,8.111,4.709,10.188,-0.017,0.937,-0.385,0.916,1.648,-0.275,60.000,266896.000,1.000
-7.752,2.223,-0.081,-0.905,14.846,9.815,12.200,10.933,-0.017,0.937,-0.387,0.763,1.648,-0.336,60.000,266897.000,1.000
2.508,-3.315,3.586,9.661,23.617,15.695,23.546,15.202,-0.016,0.937,-0.389,0.671,1.587,-0.275,60.000,266898.000,1.000
6.646,3.987,8.535,10.518,25.232,18.247,23.207,16.073,-0.019,0.937,-0.385,0.610,1.556,-0.336,60.000,266899.000,1.000
1.895,14.973,7.768,-0.794,15.893,12.316,9.292,9.449,-0.019,0.936,-0.387,0.519,1.648,-0.427,60.000,266900.000,1.000
-2.857,14.325,1.294,-10.496,4.831,2.555,-3.471,0.365,-0.018,0.935,-0.383,0.397,1.617,-0.519,60.000,266901.000,1.000
1.152,2.240,-3.195,-6.724,2.338,-2.314,-3.316,-3.090,-0.017,0.935,-0.385,0.244,1.648,-0.549,60.000,266902.000,1.000
10.845,-5.541,-0.540,4.542,6.322,-0.906,3.010,-0.338,-0.016,0.937,-0.384,0.305,1.648,-0.580,60.000,266903.000,1.000
15.784,0.780,5.017,7.854,6.044,-0.331,0.326,1.281,-0.014,0.937,-0.384,0.183,1.526,-0.488,60.000,266904.000,1.000
12.348,11.648,5.678,-0.734,-2.467,-5.731,-13.450,-3.336,-0.015,0.936,-0.384,0.183,1.617,-0.641,60.000,266905.000,1.000
7.949,11.152,0.375,-9.058,-11.027,-13.041,-24.376,-10.460,-0.012,0.938,-0.385,0.153,1.648,-0.702,60.000,266906.000,1.000
10.228,-0.985,-4.099,-6.200,-10.759,-14.547,-21.682,-12.902,-0.012,0.936,-0.386,0.061,1.831,-0.671,60.000,266907.000,1.000
16.473,-8.608,-2.426,2.497,-4.189,-9.352,-12.347,-9.690,-0.013,0.934,-0.384,0.092,1.831,-0.610,60.000,266908.000,1.000
17.799,-0.909,2.199,3.370,-1.372,-4.444,-11.050,-6.883,-0.013,0.931,-0.385,0.122,1.862,-0.732,60.000,266909.000,1.000
12.320,13.215,3.093,-5.700,-5.435,-4.845,-19.429,-8.488,-0.014,0.932,-0.383,-0.031,1.953,-0.671,60.000,266910.000,1.000
8.549,17.598,-0.150,-11.560,-7.927,-6.713,-23.632,-10.532,-0.012,0.935,-0.385,-0.031,2.014,-0.671,60.000,266911.000,1.000
13.891,10.673,-0.962,-3.787,-0.695,-3.039,-13.729,-6.749,-0.012,0.933,-0.386,0.061,2.136,-0.702,60.000,266912.000,1.000
24.151,6.816,4.931,10.502,12.200,6.100,1.977,2.176,-0.015,0.934,-0.382,0.122,2.228,-0.793,60.000,266913.000,1.000
28.707,15.520,13.063,15.610,19.128,12.979,7.607,8.724,-0.016,0.931,-0.382,0.092,2.380,-0.793,60.000,266914.000,1.000
24.652,27.760,15.918,8.133,16.291,12.520,1.056,8.319,-0.016,0.932,-0.389,0.061,2.411,-0.885,60.000,266915.000,1.000
20.635,28.699,13.218,1.326,12.950,9.430,-3.167,5.558,-0.016,0.932,-0.385,0.183,2.380,-0.763,60.000,266916.000,1.000
24.890,18.705,12.339,6.764,18.810,11.879,6.058,7.928,-0.016,0.936,-0.385,0.183,2.441,-0.824,60.000,266917.000,1.000
33.863,13.153,18.093,18.488,30.616,20.183,21.020,15.427,-0.015,0.935,-0.382,0.244,2.472,-0.763,60.000,266918.000,1.000
37.015,21.029,25.901,21.408,36.364,26.060,25.554,20.365,-0.014,0.934,-0.383,0.336,2.563,-0.763,60.000,266919.000,1.000
31.013,31.951,27.662,12.125,31.230,23.459,16.795,17.563,-0.016,0.935,-0.384,0.397,2.594,-0.641,60.000,266920.000,1.000
24.012,30.033,22.424,3.508,23.555,16.379,8.536,11.141,-0.016,0.934,-0.379,0.427,2.686,-0.519,60.000,266921.000,1.000
24.515,15.869,17.550,7.076,23.175,13.357,12.085,8.966,-0.016,0.933,-0.382,0.488,2.625,-0.549,60.000,266922.000,1.000
29.968,6.084,18.677,17.351,28.151,16.092,21.002,12.314,-0.016,0.932,-0.382,0.427,2.594,-0.488,60.000,266923.000,1.000
30.273,10.527,21.843,19.310,27.690,17.378,20.260,14.421,-0.014,0.931,-0.383,0.366,2.747,-0.610,60.000,266924.000,1.000
21.590,18.858,18.934,8.888,17.336,11.407,7.317,9.988,-0.016,0.931,-0.384,0.427,2.777,-0.519,60.000,266925.000,1.000
11.771,15.367,9.345,-1.326,5.726,2.477,-3.728,2.863,-0.018,0.932,-0.382,0.397,2.808,-0.427,60.000,266926.000,1.000
9.519,1.026,1.203,0.524,2.968,-0.560,-1.249,0.791,-0.017,0.935,-0.384,0.519,2.808,-0.458,60.000,266927.000,1.000
12.176,-7.946,0.176,8.936,6.465,3.260,7.641,4.266,-0.017,0.935,-0.382,0.519,2.716,-0.427,60.000,266928.000,1.000
9.643,-2.544,1.864,8.733,4.401,5.449,6.741,5.537,-0.020,0.933,-0.379,0.488,2.686,-0.427,60.000,266929.000,1.000
-1.100,6.541,-1.790,-3.670,-7.839,-0.379,-6.907,-0.751,-0.021,0.933,-0.382,0.580,2.686,-0.397,60.000,266930.000,1.000
-11.356,3.473,-11.216,-15.133,-21.185,-9.878,-19.009,-10.150,-0.021,0.933,-0.384,0.641,2.686,-0.366,60.000,266931.000,1.000
-12.287,-10.841,-18.348,-13.635,-24.910,-13.717,-17.474,-14.156,-0.019,0.929,-0.381,0.488,2.502,-0.397,60.000,266932.000,1.000
-6.798,-19.692,-17.355,-4.388,-20.573,-9.766,-8.452,-11.179,-0.019,0.929,-0.384,0.641,2.441,-0.427,60.000,266933.000,1.000
-5.646,-13.484,-12.546,-2.375,-19.187,-5.484,-7.320,-8.126,-0.020,0.929,-0.383,0.732,2.472,-0.427,60.000,266934.000,1.000
-13.049,-3.041,-12.577,-11.697,-25.783,-7.495,-17.290,-10.609,-0.018,0.927,-0.385,0.702,2.502,-0.336,60.000,266935.000,1.000
-21.299,-4.720,-18.740,-20.058,-32.575,-12.651,-25.056,-15.193,-0.017,0.927,-0.381,0.885,2.441,-0.305,60.000,266936.000,1.000
-21.687,-17.938,-23.450,-15.991,-30.103,-12.868,-19.447,-14.432,-0.017,0.927,-0.381,0.977,2.563,-0.336,60.000,266937.000,1.000
-16.634,-26.101,-20.933,-4.996,-20.818,-6.805,-7.194,-7.641,-0.017,0.926,-0.384,1.129,2.533,-0.244,60.000,266938.000,1.000
-16.118,-19.475,-15.163,-2.046,-16.046,-1.930,-3.791,-2.201,-0.016,0.928,-0.384,1.251,2.594,-0.275,60.000,266939.000,1.000
-23.316,-8.338,-14.066,-10.744,-20.447,-4.039,-12.061,-3.451,-0.016,0.930,-0.382,1.373,2.533,-0.336,60.000,266940.000,1.000
-29.663,-8.525,-18.282,-18.192,-25.672,-9.021,-18.251,-7.326,-0.016,0.931,-0.386,1.373,2.563,-0.336,60.000,266941.000,1.000
-26.492,-19.561,-20.319,-12.925,-22.094,-8.517,-11.223,-6.147,-0.017,0.932,-0.385,1.404,2.563,-0.366,60.000,266942.000,1.000
-17.045,-25.407,-15.141,-0.959,-12.208,-1.542,1.951,0.586,-0.018,0.933,-0.383,1.617,2.502,-0.305,60.000,266943.000,1.000
-12.016,-16.630,-7.258,2.517,-6.979,4.199,5.851,5.507,-0.019,0.932,-0.383,1.678,2.319,-0.427,60.000,266944.000,1.000
-14.968,-3.516,-4.598,-5.854,-10.427,2.955,-1.828,3.614,-0.018,0.931,-0.387,1.617,2.380,-0.366,60.000,266945.000,1.000
-17.836,-2.137,-7.751,-13.047,-14.061,-1.364,-7.200,-0.905,-0.018,0.934,-0.385,1.556,2.350,-0.397,60.000,266946.000,1.000
-12.459,-12.482,-9.366,-7.721,-8.917,-1.016,0.239,-0.592,-0.017,0.936,-0.383,1.678,2.319,-0.488,60.000,266947.000,1.000
-2.001,-18.614,-4.344,4.177,1.632,4.532,12.688,4.945,-0.016,0.936,-0.383,1.740,2.289,-0.549,60.000,266948.000,1.000
3.402,-10.608,3.199,7.767,6.197,7.722,14.548,8.560,-0.014,0.935,-0.385,1.770,2.289,-0.610,60.000,266949.000,1.000
0.404,1.789,5.525,-0.264,0.747,3.233,3.734,5.348,-0.013,0.935,-0.385,1.709,2.228,-0.702,60.000,266950.000,1.000
-3.364,2.497,1.623,-7.321,-6.201,-4.803,-5.622,-0.813,-0.012,0.936,-0.385,1.770,2.228,-0.671,60.000,266951.000,1.000
-0.053,-8.785,-1.645,-2.374,-5.414,-8.390,-2.554,-2.649,-0.016,0.938,-0.385,1.801,2.197,-0.885,60.000,266952.000,1.000
7.881,-15.992,1.091,9.047,0.679,-6.177,6.156,0.849,-0.016,0.938,-0.387,1.556,2.106,-0.946,60.000,266953.000,1.000
