EEG 1,EEG 2,EEG 3,EEG 4,EEG 5,EEG 6,EEG 7,EEG 8,Accelerometer X,Accelerometer Y,Accelerometer Z,Gyroscope X,Gyroscope Y,Gyroscope Z,Battery Level,Counter,Validation Indicator
6.705,13.311,4.455,0.220,1.059,-1.091,-6.233,3.989,-0.032,0.937,-0.366,1.373,2.930,-0.732,60.000,228929.000,1.000
11.356,4.217,2.092,7.560,5.909,1.369,2.621,4.473,-0.031,0.936,-0.368,1.434,2.930,-0.732,60.000,228930.000,1.000
15.918,1.410,4.424,14.874,11.462,5.512,10.000,6.559,-0.032,0.938,-0.369,1.495,2.930,-0.702,60.000,228931.000,1.000
13.486,10.974,7.472,10.815,9.329,4.904,4.767,5.986,-0.032,0.938,-0.371,1.648,2.747,-0.702,60.000,228932.000,1.000
5.847,20.837,5.365,-1.345,0.616,-1.578,-8.077,0.820,-0.032,0.936,-0.370,1.648,2.686,-0.610,60.000,228933.000,1.000
1.880,18.104,-0.606,-7.338,-4.771,-7.218,-13.228,-4.953,-0.030,0.936,-0.367,1.678,2.716,-0.610,60.000,228934.000,1.000
5.940,7.472,-3.027,-0.831,-1.032,-5.829,-5.196,-5.975,-0.029,0.934,-0.368,1.801,2.563,-0.702,60.000,228935.000,1.000
12.052,4.931,1.648,8.223,5.927,0.159,4.633,-2.289,-0.030,0.935,-0.368,1.801,2.502,-0.732,60.000,228936.000,1.000
11.997,15.450,7.972,7.300,6.618,2.976,3.623,0.811,-0.029,0.936,-0.367,1.862,2.380,-0.610,60.000,228937.000,1.000
6.296,25.618,8.478,-1.804,0.669,-0.227,-5.228,-0.320,-0.030,0.937,-0.371,1.892,2.411,-0.580,60.000,228938.000,1.000
3.087,21.658,3.348,-6.051,-3.249,-4.035,-8.183,-3.323,-0.031,0.936,-0.370,1.984,2.380,-0.641,60.000,228939.000,1.000
6.575,8.167,-0.342,0.338,0.111,-2.766,-0.392,-3.717,-0.031,0.936,-0.369,2.075,2.350,-0.580,60.000,228940.000,1.000
11.036,1.724,1.354,7.677,5.070,1.350,7.059,-1.429,-0.028,0.934,-0.369,2.228,2.380,-0.580,60.000,228941.000,1.000
8.690,8.194,3.851,4.263,2.884,1.149,2.482,-0.879,-0.028,0.931,-0.368,2.380,2.411,-0.519,60.000,228942.000,1.000
0.560,15.067,0.707,-7.147,-5.923,-5.380,-9.945,-4.569,-0.026,0.933,-0.370,2.441,2.472,-0.397,60.000,228943.000,1.000
-4.738,9.183,-6.997,-12.694,-11.881,-11.937,-15.429,-9.166,-0.026,0.932,-0.372,2.441,2.502,-0.397,60.000,228944.000,1.000
-2.723,-4.936,-11.734,-6.189,-9.300,-12.255,-8.529,-9.708,-0.029,0.933,-0.370,2.472,2.441,-0.366,60.000,228945.000,1.000
0.901,-11.466,-9.734,2.462,-3.986,-8.542,-0.437,-6.302,-0.030,0.934,-0.370,2.502,2.441,-0.458,60.000,228946.000,1.000
-1.751,-5.283,-6.194,0.848,-5.224,-8.327,-3.508,-4.062,-0.029,0.937,-0.373,2.441,2.502,-0.458,60.000,228947.000,1.000
-9.713,1.071,-8.173,-8.976,-13.001,-14.000,-14.346,-6.279,-0.031,0.938,-0.375,2.380,2.472,-0.519,60.000,228948.000,1.000
-14.352,-4.866,-14.853,-13.485,-18.062,-19.492,-18.686,-10.113,-0.031,0.938,-0.371,2.380,2.380,-0.519,60.000,228949.000,1.000
-11.160,-17.706,-18.594,-6.443,-14.691,-18.643,-11.210,-10.632,-0.030,0.937,-0.370,2.289,2.319,-0.549,60.000,228950.000,1.000
-5.889,-21.243,-15.349,2.544,-8.474,-13.601,-2.800,-7.506,-0.031,0.937,-0.372,2.289,2.319,-0.519,60.000,228951.000,1.000
-6.472,-10.702,-10.053,1.482,-8.304,-11.607,-5.186,-5.172,-0.030,0.937,-0.372,2.289,2.350,-0.580,60.000,228952.000,1.000
-12.025,0.465,-9.689,-7.373,-13.908,-14.828,-14.523,-6.521,-0.029,0.937,-0.373,2.350,2.411,-0.671,60.000,228953.000,1.000
-14.245,-1.332,-13.786,-10.801,-16.308,-17.490,-16.809,-9.009,-0.030,0.938,-0.374,2.228,2.411,-0.732,60.000,228954.000,1.000
-9.125,-11.500,-15.329,-3.135,-10.439,-14.083,-7.491,-8.365,-0.031,0.938,-0.375,2.197,2.319,-0.732,60.000,228955.000,1.000
-2.648,-13.830,-10.608,5.766,-2.362,-7.158,2.041,-4.650,-0.030,0.937,-0.373,2.197,2.350,-0.671,60.000,228956.000,1.000
-2.577,-2.957,-4.359,4.189,-1.063,-3.934,0.112,-2.230,-0.031,0.939,-0.375,2.136,2.350,-0.671,60.000,228957.000,1.000
-7.738,8.199,-3.151,-5.083,-6.146,-6.371,-9.047,-3.620,-0.029,0.939,-0.375,2.075,2.319,-0.641,60.000,228958.000,1.000
-9.664,6.178,-6.289,-8.508,-8.464,-8.513,-11.047,-5.852,-0.029,0.939,-0.374,2.106,2.319,-0.702,60.000,228959.000,1.000
-4.361,-4.649,-6.969,-0.586,-2.948,-4.928,-1.289,-4.624,-0.030,0.941,-0.376,2.075,2.350,-0.763,60.000,228960.000,1.000
2.095,-8.398,-2.042,8.294,4.152,1.471,8.475,-0.498,-0.029,0.943,-0.376,2.045,2.472,-0.702,60.000,228961.000,1.000
1.898,0.302,3.280,5.989,3.830,3.274,6.265,1.618,-0.027,0.942,-0.377,1.953,2.502,-0.641,60.000,228962.000,1.000
-3.733,9.117,2.428,-4.728,-3.134,-1.179,-3.636,-0.906,-0.029,0.941,-0.375,1.923,2.686,-0.732,60.000,228963.000,1.000
-6.220,5.509,-3.376,-9.898,-7.030,-5.320,-6.598,-4.695,-0.030,0.941,-0.373,1.770,2.747,-0.519,60.000,228964.000,1.000
-1.408,-5.392,-6.440,-3.330,-2.330,-3.100,2.229,-4.660,-0.030,0.941,-0.375,1.801,2.686,-0.488,60.000,228965.000,1.000
4.671,-7.651,-2.868,5.186,4.823,2.817,11.198,-0.683,-0.029,0.941,-0.376,1.740,2.686,-0.488,60.000,228966.000,1.000
3.962,3.170,2.180,3.552,4.914,4.532,8.018,2.270,-0.029,0.940,-0.379,1.617,2.777,-0.427,60.000,228967.000,1.000
-2.665,13.364,1.531,-5.985,-2.212,-0.609,-3.610,0.762,-0.030,0.940,-0.380,1.404,2.655,-0.336,60.000,228968.000,1.000
-6.717,9.635,-4.288,-10.142,-7.494,-6.695,-9.326,-2.741,-0.031,0.939,-0.377,1.434,2.747,-0.305,60.000,228969.000,1.000
-3.781,-2.639,-7.934,-3.154,-5.256,-7.456,-3.885,-3.564,-0.031,0.941,-0.378,1.404,2.716,-0.214,60.000,228970.000,1.000
0.499,-6.805,-5.455,5.103,-0.831,-4.630,1.942,-1.381,-0.032,0.942,-0.378,1.251,2.747,-0.153,60.000,228971.000,1.000
-1.630,2.050,-1.698,2.686,-2.784,-5.064,-3.211,-0.544,-0.033,0.942,-0.379,1.190,2.686,-0.183,60.000,228972.000,1.000
-9.180,10.281,-3.451,-7.839,-10.604,-10.695,-15.036,-3.770,-0.032,0.943,-0.377,1.190,2.716,-0.092,60.000,228973.000,1.000
-13.648,4.547,-9.813,-12.721,-15.032,-15.438,-19.072,-8.053,-0.031,0.938,-0.376,1.068,2.838,0.000,60.000,228974.000,1.000
-10.537,-9.526,-13.054,-5.663,-10.543,-13.269,-10.356,-8.469,-0.030,0.940,-0.377,1.068,2.747,-0.122,60.000,228975.000,1.000
-5.311,-14.751,-8.936,3.862,-2.811,-6.408,-0.079,-4.683,-0.031,0.941,-0.378,0.946,2.777,0.000,60.000,228976.000,1.000
-5.837,-5.978,-2.560,3.800,-1.083,-2.544,-0.320,-1.384,-0.030,0.940,-0.376,0.977,2.777,-0.122,60.000,228977.000,1.000
-11.753,2.725,-1.624,-4.111,-5.926,-4.797,-7.925,-2.040,-0.029,0.938,-0.375,0.916,2.808,0.000,60.000,228978.000,1.000
-15.283,-2.716,-6.224,-7.313,-9.020,-8.007,-9.568,-4.505,-0.029,0.937,-0.374,0.854,2.869,-0.061,60.000,228979.000,1.000
-12.312,-17.328,-9.259,-0.521,-5.217,-6.404,-0.933,-4.585,-0.028,0.936,-0.376,0.885,2.930,-0.092,60.000,228980.000,1.000
-8.148,-24.174,-6.626,6.463,0.030,-1.847,6.810,-2.356,-0.029,0.936,-0.376,0.885,2.777,-0.153,60.000,228981.000,1.000
-9.816,-17.246,-2.753,2.394,-1.508,-0.964,2.583,-2.053,-0.029,0.937,-0.376,0.854,2.869,-0.092,60.000,228982.000,1.000
-15.780,-8.720,-3.979,-9.331,-8.829,-5.404,-8.704,-5.788,-0.027,0.938,-0.375,0.854,2.960,0.000,60.000,228983.000,1.000
-17.658,-11.176,-9.290,-14.701,-12.557,-9.109,-12.352,-10.091,-0.028,0.936,-0.375,0.793,2.899,0.000,60.000,228984.000,1.000
-11.640,-19.608,-11.309,-7.822,-7.612,-6.461,-3.783,-10.163,-0.029,0.936,-0.376,0.854,2.960,-0.092,60.000,228985.000,1.000
-3.853,-18.262,-6.269,1.335,-0.174,0.003,5.291,-6.155,-0.028,0.936,-0.375,0.885,3.021,-0.183,60.000,228986.000,1.000
-2.174,-2.929,0.734,0.760,0.691,2.990,2.976,-2.981,-0.026,0.936,-0.373,0.916,3.052,-0.305,60.000,228987.000,1.000
-5.794,12.284,2.485,-7.239,-4.715,0.307,-6.574,-3.808,-0.027,0.934,-0.373,0.824,3.082,-0.275,60.000,228988.000,1.000
-6.952,13.360,-0.896,-9.690,-7.434,-2.432,-9.077,-6.011,-0.026,0.935,-0.375,0.885,3.021,-0.214,60.000,228989.000,1.000
-2.190,4.909,-2.661,-1.430,-2.431,0.141,0.038,-5.057,-0.028,0.936,-0.376,0.946,3.113,-0.305,60.000,228990.000,1.000
2.713,3.446,0.944,7.388,4.411,5.530,9.322,-0.904,-0.028,0.935,-0.374,0.854,3.143,-0.366,60.000,228991.000,1.000
0.978,14.686,5.555,5.249,4.556,6.809,7.188,1.945,-0.029,0.935,-0.374,0.763,3.143,-0.397,60.000,228992.000,1.000
-5.237,26.099,5.127,-4.601,-1.108,2.432,-1.955,0.783,-0.027,0.932,-0.372,0.854,3.174,-0.427,60.000,228993.000,1.000
-7.186,24.698,0.829,-8.270,-3.243,-1.288,-3.696,-1.436,-0.028,0.933,-0.372,0.885,3.204,-0.397,60.000,228994.000,1.000
-1.350,15.111,-0.272,-0.151,2.993,1.225,6.355,-0.222,-0.029,0.935,-0.374,0.916,3.204,-0.458,60.000,228995.000,1.000
5.436,12.858,4.880,9.353,10.907,6.937,16.165,4.036,-0.029,0.932,-0.374,0.824,3.265,-0.458,60.000,228996.000,1.000
4.838,22.355,10.651,8.077,11.033,8.085,13.522,6.394,-0.030,0.936,-0.371,0.977,3.143,-0.519,60.000,228997.000,1.000
-1.962,30.495,10.033,-1.208,3.880,2.745,2.700,4.139,-0.032,0.936,-0.372,1.007,3.143,-0.488,60.000,228998.000,1.000
-5.907,24.992,4.211,-4.541,-0.712,-2.312,-1.310,0.724,-0.030,0.936,-0.375,1.007,3.082,-0.488,60.000,228999.000,1.000
-2.105,12.063,1.228,4.158,3.255,-0.471,6.944,1.355,-0.028,0.935,-0.376,0.977,3.082,-0.549,60.000,229000.000,1.000
4.030,8.515,5.286,14.857,10.133,6.069,16.335,6.128,-0.027,0.933,-0.375,1.099,3.113,-0.580,60.000,229001.000,1.000
4.662,18.771,11.184,15.223,10.698,9.464,14.746,9.964,-0.030,0.936,-0.368,0.977,2.899,-0.580,60.000,229002.000,1.000
0.296,28.469,11.443,7.264,4.772,6.654,5.530,9.306,-0.029,0.936,-0.370,1.007,3.021,-0.549,60.000,229003.000,1.000
-1.394,23.697,6.322,3.950,1.036,2.818,2.212,6.457,-0.030,0.938,-0.370,1.038,2.991,-0.488,60.000,229004.000,1.000
3.272,9.748,3.123,10.805,4.598,3.555,9.167,5.859,-0.031,0.939,-0.373,1.007,2.960,-0.519,60.000,229005.000,1.000
8.505,3.785,5.882,18.130,9.733,6.917,15.356,7.702,-0.032,0.937,-0.375,1.099,2.899,-0.519,60.000,229006.000,1.000
6.936,11.573,9.785,14.635,7.901,6.399,9.867,7.831,-0.030,0.937,-0.374,0.977,2.869,-0.458,60.000,229007.000,1.000
0.024,20.258,8.070,3.521,-0.051,0.687,-2.306,4.068,-0.028,0.938,-0.374,1.099,2.777,-0.336,60.000,229008.000,1.000
-3.610,16.798,1.660,-1.479,-4.623,-3.700,-6.402,-0.117,-0.030,0.936,-0.375,1.038,2.808,-0.275,60.000,229009.000,1.000
0.039,6.163,-2.058,5.073,-0.618,-1.025,2.101,-0.017,-0.030,0.936,-0.375,1.160,2.747,-0.244,60.000,229010.000,1.000
4.751,4.121,0.430,12.691,5.604,5.601,11.212,3.817,-0.029,0.939,-0.375,1.099,2.808,-0.244,60.000,229011.000,1.000
2.574,14.768,3.809,9.259,4.718,7.997,8.668,6.044,-0.031,0.942,-0.375,1.099,2.777,-0.275,60.000,229012.000,1.000
-5.239,24.126,1.266,-2.396,-2.924,3.552,-1.585,3.481,-0.030,0.939,-0.376,1.038,2.625,-0.214,60.000,229013.000,1.000
-9.852,19.014,-5.919,-8.420,-7.859,-1.618,-5.152,-0.813,-0.029,0.937,-0.375,1.160,2.655,-0.183,60.000,229014.000,1.000
-6.783,5.294,-9.793,-2.891,-4.402,-1.126,2.886,-1.815,-0.027,0.939,-0.373,1.129,2.686,-0.122,60.000,229015.000,1.000
-1.633,0.201,-6.252,4.409,1.914,3.321,11.437,0.786,-0.028,0.938,-0.375,1.068,2.716,-0.061,60.000,229016.000,1.000
-1.798,9.233,-0.240,2.079,2.520,5.038,9.207,2.710,-0.030,0.937,-0.373,1.007,2.655,0.031,60.000,229017.000,1.000
-5.950,19.228,1.334,-6.692,-1.979,2.256,0.699,1.562,-0.030,0.937,-0.377,0.977,2.686,0.031,60.000,229018.000,1.000
-5.960,16.935,-0.916,-8.343,-2.570,0.838,0.095,0.475,-0.029,0.936,-0.372,1.038,2.716,-0.061,60.000,229019.000,1.000
1.352,7.244,-0.098,2.140,5.433,5.971,11.406,3.705,-0.026,0.937,-0.373,1.099,2.777,-0.122,60.000,229020.000,1.000
8.866,5.724,6.586,13.644,15.169,14.244,22.281,10.146,-0.028,0.938,-0.373,1.007,2.747,-0.061,60.000,229021.000,1.000
7.982,16.100,12.914,13.354,16.701,17.314,20.204,13.898,-0.026,0.937,-0.374,0.977,2.808,-0.031,60.000,229022.000,1.000
-0.077,24.343,11.446,3.630,9.891,12.564,9.075,11.528,-0.026,0.937,-0.375,1.038,2.838,0.000,60.000,229023.000,1.000
-5.955,17.707,3.451,-1.719,4.070,6.219,3.417,6.274,-0.027,0.938,-0.376,0.977,2.808,0.031,60.000,229024.000,1.000
-4.487,2.491,-2.649,3.546,5.122,4.783,8.361,3.587,-0.026,0.939,-0.376,1.007,2.869,0.031,60.000,229025.000,1.000
-0.707,-3.947,-2.045,10.147,8.029,6.773,13.228,4.283,-0.024,0.939,-0.374,0.946,2.808,-0.061,60.000,229026.000,1.000
-1.745,3.755,1.017,7.080,4.953,5.890,7.379,4.452,-0.024,0.939,-0.369,1.007,2.960,-0.031,60.000,229027.000,1.000
-6.502,12.244,-0.022,-2.495,-2.921,0.670,-4.143,1.679,-0.025,0.940,-0.373,0.977,2.960,-0.153,60.000,229028.000,1.000
-7.510,8.135,-4.784,-5.517,-6.532,-3.060,-7.137,-1.297,-0.024,0.938,-0.371,0.854,3.082,-0.153,60.000,229029.000,1.000
-2.131,-3.614,-6.874,2.499,-1.555,-0.357,2.014,-0.561,-0.023,0.938,-0.374,0.854,3.052,-0.092,60.000,229030.000,1.000
2.865,-6.893,-3.390,10.615,5.157,5.535,10.857,3.040,-0.025,0.937,-0.373,0.793,2.991,-0.122,60.000,229031.000,1.000
0.146,2.978,0.535,7.129,4.527,7.161,7.538,4.556,-0.026,0.935,-0.372,0.763,3.021,-0.061,60.000,229032.000,1.000
-7.941,12.628,-1.283,-4.294,-2.529,2.825,-3.203,1.552,-0.025,0.936,-0.375,0.671,3.143,-0.214,60.000,229033.000,1.000
-12.043,9.005,-7.289,-9.426,-6.481,-1.220,-6.737,-2.471,-0.024,0.938,-0.372,0.702,3.265,-0.153,60.000,229034.000,1.000
-8.131,-2.889,-10.071,-2.867,-2.436,0.465,1.192,-2.810,-0.025,0.938,-0.375,0.732,3.204,-0.183,60.000,229035.000,1.000
-2.723,-7.406,-6.530,4.600,2.992,4.831,8.576,-0.012,-0.024,0.939,-0.373,0.610,3.174,-0.092,60.000,229036.000,1.000
-3.799,-0.227,-2.209,0.932,0.807,4.548,3.874,0.908,-0.025,0.938,-0.372,0.671,3.235,-0.183,60.000,229037.000,1.000
-9.835,5.808,-3.638,-10.485,-7.749,-1.613,-7.712,-2.509,-0.024,0.939,-0.371,0.641,3.296,-0.183,60.000,229038.000,1.000
-11.928,-0.851,-9.144,-15.317,-12.487,-6.558,-10.969,-6.573,-0.025,0.939,-0.371,0.641,3.357,-0.183,60.000,229039.000,1.000
-6.087,-13.493,-10.902,-7.859,-7.850,-4.113,-1.326,-6.319,-0.024,0.938,-0.371,0.580,3.448,-0.244,60.000,229040.000,1.000
1.075,-15.664,-5.674,1.103,-0.338,2.665,8.818,-2.332,-0.024,0.937,-0.374,0.519,3.326,-0.214,60.000,229041.000,1.000
1.087,-3.786,0.506,-1.036,0.354,5.491,6.827,-0.155,-0.025,0.938,-0.372,0.702,3.387,-0.244,60.000,229042.000,1.000
-5.048,7.514,0.360,-11.568,-5.573,1.870,-3.281,-2.876,-0.024,0.936,-0.372,0.610,3.387,-0.183,60.000,229043.000,1.000
-8.415,5.038,-4.820,-16.362,-8.594,-1.845,-6.819,-6.928,-0.026,0.938,-0.369,0.610,3.540,-0.153,60.000,229044.000,1.000
-4.519,-5.277,-7.144,-9.402,-3.287,0.480,1.079,-6.929,-0.025,0.937,-0.370,0.580,3.418,-0.153,60.000,229045.000,1.000
0.729,-6.896,-3.014,-0.878,4.038,6.187,8.820,-2.864,-0.027,0.937,-0.369,0.671,3.479,-0.122,60.000,229046.000,1.000
-0.378,4.378,2.191,-2.657,4.140,7.643,4.736,0.257,-0.027,0.936,-0.369,0.671,3.418,-0.183,60.000,229047.000,1.000
-6.352,14.525,1.785,-11.562,-2.313,2.913,-6.459,-0.573,-0.028,0.936,-0.370,0.671,3.418,-0.214,60.000,229048.000,1.000
-8.425,10.522,-2.924,-13.719,-5.699,-1.526,-9.997,-2.413,-0.027,0.938,-0.369,0.732,3.418,-0.183,60.000,229049.000,1.000
-2.585,-1.655,-4.357,-3.793,-0.626,0.445,-1.224,-0.621,-0.025,0.938,-0.369,0.793,3.235,-0.183,60.000,229050.000,1.000
4.838,-5.130,0.903,7.517,6.830,6.365,8.221,4.659,-0.026,0.938,-0.371,0.793,3.265,-0.031,60.000,229051.000,1.000
5.569,4.627,7.133,7.899,7.552,8.568,6.481,8.533,-0.025,0.938,-0.371,0.702,3.235,-0.092,60.000,229052.000,1.000
0.228,13.456,6.861,-0.159,1.703,4.451,-2.524,7.824,-0.026,0.938,-0.367,0.732,3.113,0.000,60.000,229053.000,1.000
-3.087,7.959,0.767,-3.363,-1.878,-0.317,-5.027,5.173,-0.025,0.938,-0.368,0.763,3.174,-0.122,60.000,229054.000,1.000
-0.172,-5.879,-3.257,3.866,1.985,0.283,3.273,5.324,-0.026,0.936,-0.371,0.793,3.113,-0.092,60.000,229055.000,1.000
3.830,-10.555,-0.540,12.024,7.913,4.673,11.407,8.797,-0.029,0.937,-0.370,0.916,3.052,-0.092,60.000,229056.000,1.000
2.295,-0.632,4.617,10.250,7.902,6.497,8.746,11.567,-0.026,0.937,-0.369,0.885,3.052,-0.122,60.000,229057.000,1.000
-2.923,10.395,5.511,1.865,2.847,3.959,0.192,10.995,-0.027,0.938,-0.367,0.854,3.113,-0.092,60.000,229058.000,1.000
-3.684,9.016,2.484,-0.079,1.416,2.405,-0.435,9.517,-0.028,0.938,-0.371,0.977,2.899,-0.092,60.000,229059.000,1.000
2.831,-0.099,1.955,8.716,7.601,6.374,10.079,10.820,-0.026,0.938,-0.373,0.793,2.899,-0.214,60.000,229060.000,1.000
9.366,-1.570,6.624,17.086,14.395,12.380,19.089,14.049,-0.027,0.938,-0.369,0.977,2.930,-0.153,60.000,229061.000,1.000
7.787,8.517,10.989,13.280,12.855,13.046,14.917,14.532,-0.026,0.937,-0.372,1.007,2.899,-0.061,60.000,229062.000,1.000
-0.188,16.703,8.596,1.066,4.247,7.147,2.727,10.155,-0.025,0.936,-0.374,1.160,2.808,-0.183,60.000,229063.000,1.000
-5.480,10.666,0.981,-5.278,-1.576,1.527,-2.529,4.423,-0.026,0.938,-0.373,1.160,2.808,-0.183,60.000,229064.000,1.000
-3.841,-3.438,-4.136,-0.289,0.573,2.020,3.574,1.930,-0.025,0.937,-0.374,1.129,2.777,-0.244,60.000,229065.000,1.000
-1.073,-8.984,-3.102,5.566,4.482,5.715,9.314,2.361,-0.026,0.938,-0.369,1.129,2.716,-0.214,60.000,229066.000,1.000
-4.284,-1.391,-0.922,0.719,1.536,5.181,3.528,1.251,-0.026,0.935,-0.372,1.160,2.655,-0.244,60.000,229067.000,1.000
-11.376,6.077,-3.764,-11.156,-6.933,-1.023,-8.471,-3.437,-0.026,0.937,-0.372,1.099,2.655,-0.214,60.000,229068.000,1.000
-13.433,1.269,-9.832,-15.885,-11.062,-6.041,-11.877,-7.971,-0.025,0.938,-0.373,1.190,2.594,-0.183,60.000,229069.000,1.000
-6.954,-9.556,-11.454,-8.200,-5.858,-3.908,-2.780,-7.610,-0.025,0.940,-0.371,1.282,2.533,-0.244,60.000,229070.000,1.000
0.962,-10.266,-5.691,0.942,1.868,2.318,6.210,-3.087,-0.026,0.939,-0.373,1.282,2.625,-0.275,60.000,229071.000,1.000
1.836,2.543,1.247,-0.716,2.654,4.656,3.033,0.118,-0.024,0.938,-0.372,1.190,2.594,-0.305,60.000,229072.000,1.000
-3.119,14.271,1.990,-10.109,-2.903,0.913,-7.486,-1.119,-0.025,0.935,-0.372,1.282,2.594,-0.244,60.000,229073.000,1.000
-5.271,11.763,-2.486,-13.445,-5.428,-2.742,-10.567,-3.778,-0.024,0.937,-0.373,1.282,2.625,-0.244,60.000,229074.000,1.000
-0.798,0.903,-4.687,-5.492,-0.069,-0.639,-1.982,-3.252,-0.026,0.938,-0.371,1.312,2.502,-0.366,60.000,229075.000,1.000
4.165,-1.715,-0.983,3.273,6.752,4.571,6.266,0.253,-0.026,0.940,-0.368,1.404,2.533,-0.519,60.000,229076.000,1.000
2.284,8.260,3.587,1.366,6.264,5.717,2.661,2.194,-0.026,0.940,-0.370,1.434,2.472,-0.488,60.000,229077.000,1.000
-4.622,16.928,2.486,-7.702,-0.563,1.021,-8.019,0.140,-0.025,0.938,-0.372,1.312,2.502,-0.549,60.000,229078.000,1.000
-7.905,11.402,-3.115,-10.221,-4.389,-3.530,-11.510,-2.786,-0.025,0.938,-0.373,1.373,2.441,-0.488,60.000,229079.000,1.000
-3.960,-2.358,-5.946,-1.358,-0.488,-2.639,-4.000,-2.294,-0.024,0.938,-0.368,1.343,2.441,-0.488,60.000,229080.000,1.000
0.785,-7.737,-2.788,7.919,4.649,0.824,2.516,0.989,-0.023,0.938,-0.369,1.343,2.411,-0.580,60.000,229081.000,1.000
-1.128,-0.175,1.097,5.839,2.420,-0.054,-2.935,2.294,-0.023,0.939,-0.371,1.312,2.350,-0.519,60.000,229082.000,1.000
-7.652,6.971,-0.576,-3.925,-5.699,-6.213,-14.647,-0.671,-0.024,0.940,-0.371,1.251,2.411,-0.580,60.000,229083.000,1.000
-9.706,1.463,-6.065,-7.170,-9.702,-10.641,-17.480,-4.260,-0.024,0.938,-0.370,1.282,2.441,-0.549,60.000,229084.000,1.000
-3.336,-10.279,-7.671,1.556,-4.301,-7.381,-7.182,-3.363,-0.025,0.938,-0.372,1.282,2.411,-0.580,60.000,229085.000,1.000
4.834,-11.806,-2.481,11.626,4.027,0.441,3.882,1.899,-0.026,0.939,-0.373,1.373,2.441,-0.610,60.000,229086.000,1.000
6.295,0.336,3.105,10.897,5.729,4.491,3.385,6.224,-0.025,0.940,-0.374,1.251,2.472,-0.519,60.000,229087.000,1.000
1.774,11.267,1.775,2.148,0.790,1.938,-4.689,5.979,-0.025,0.941,-0.372,1.312,2.411,-0.549,60.000,229088.000,1.000
-0.352,7.678,-4.763,-1.240,-1.971,-1.483,-6.392,3.496,-0.027,0.941,-0.369,1.251,2.411,-0.549,60.000,229089.000,1.000
3.991,-4.319,-7.960,5.740,2.295,0.033,2.297,3.078,-0.025,0.943,-0.371,1.190,2.350,-0.488,60.000,229090.000,1.000
9.014,-7.830,-3.700,12.667,7.622,4.326,9.847,4.708,-0.025,0.940,-0.370,1.099,2.319,-0.397,60.000,229091.000,1.000
7.523,1.716,2.659,8.453,5.926,4.833,5.632,4.434,-0.026,0.939,-0.367,1.068,2.411,-0.458,60.000,229092.000,1.000
1.427,10.857,4.081,-2.656,-1.004,0.593,-4.524,0.766,-0.025,0.939,-0.369,1.129,2.319,-0.488,60.000,229093.000,1.000
-0.537,7.344,1.467,-6.301,-3.204,-1.610,-5.570,-2.169,-0.024,0.937,-0.371,1.251,2.228,-0.336,60.000,229094.000,1.000
5.104,-2.636,1.836,2.492,3.996,3.618,6.290,0.414,-0.024,0.938,-0.369,1.282,2.380,-0.458,60.000,229095.000,1.000
11.438,-3.291,7.816,12.355,13.184,12.359,17.938,7.327,-0.026,0.938,-0.372,1.343,2.411,-0.458,60.000,229096.000,1.000
10.276,8.219,13.271,10.772,14.299,15.835,16.491,12.201,-0.024,0.937,-0.370,1.343,2.411,-0.305,60.000,229097.000,1.000
3.016,16.991,11.278,0.636,7.567,11.431,5.892,10.918,-0.024,0.937,-0.372,1.404,2.380,-0.244,60.000,229098.000,1.000
-1.640,10.208,3.476,-4.404,2.323,5.296,0.354,6.008,-0.024,0.937,-0.369,1.434,2.380,-0.305,60.000,229099.000,1.000
0.199,-5.472,-2.058,0.900,3.689,3.324,4.170,2.523,-0.024,0.938,-0.370,1.373,2.350,-0.275,60.000,229100.000,1.000
2.684,-12.656,-1.293,6.503,5.897,3.419,6.267,1.462,-0.024,0.935,-0.369,1.434,2.380,-0.244,60.000,229101.000,1.000
-0.780,-6.143,1.248,1.859,1.330,-0.431,-3.097,-0.326,-0.025,0.935,-0.369,1.587,2.411,-0.275,60.000,229102.000,1.000
-7.373,1.229,-0.131,-8.441,-7.610,-8.334,-17.146,-4.212,-0.024,0.934,-0.371,1.617,2.563,-0.305,60.000,229103.000,1.000
-7.912,-2.539,-3.561,-10.202,-10.615,-12.934,-20.420,-6.624,-0.024,0.933,-0.369,1.678,2.533,-0.275,60.000,229104.000,1.000
0.609,-11.599,-2.051,0.868,-3.159,-8.856,-9.392,-3.602,-0.024,0.936,-0.368,1.740,2.472,-0.427,60.000,229105.000,1.000
10.103,-10.919,6.073,12.556,6.851,-0.428,2.362,3.143,-0.025,0.936,-0.373,1.862,2.441,-0.305,60.000,229106.000,1.000
11.245,1.643,13.486,11.910,8.890,3.229,1.869,7.439,-0.023,0.935,-0.373,1.831,2.472,-0.366,60.000,229107.000,1.000
4.971,10.916,12.524,2.023,2.963,-0.575,-6.718,5.915,-0.024,0.934,-0.370,1.801,2.502,-0.488,60.000,229108.000,1.000
0.245,4.366,4.796,-2.920,-1.529,-5.535,-9.102,1.779,-0.022,0.934,-0.371,1.801,2.472,-0.366,60.000,229109.000,1.000
1.588,-10.723,-1.083,2.814,0.829,-5.519,-1.262,0.231,-0.025,0.935,-0.371,1.923,2.563,-0.397,60.000,229110.000,1.000
3.600,-16.582,-0.549,9.243,4.415,-2.651,5.037,1.745,-0.027,0.935,-0.372,1.923,2.502,-0.488,60.000,229111.000,1.000
-0.373,-8.307,1.894,5.354,1.291,-3.442,-0.907,2.153,-0.027,0.935,-0.375,1.892,2.533,-0.519,60.000,229112.000,1.000
-7.865,0.541,0.116,-4.933,-6.772,-8.765,-13.098,-0.903,-0.024,0.933,-0.371,2.045,2.472,-0.610,60.000,229113.000,1.000
-9.892,-2.598,-4.444,-7.824,-9.987,-11.902,-16.318,-4.295,-0.024,0.935,-0.373,2.106,2.380,-0.641,60.000,229114.000,1.000
-3.176,-11.873,-4.748,1.154,-3.897,-7.642,-6.698,-3.688,-0.023,0.935,-0.374,2.136,2.502,-0.610,60.000,229115.000,1.000
4.864,-11.732,1.477,10.467,4.048,0.043,2.914,0.152,-0.023,0.934,-0.373,2.197,2.563,-0.610,60.000,229116.000,1.000
5.542,0.570,7.664,7.906,4.028,2.595,0.274,1.914,-0.024,0.936,-0.372,2.136,2.594,-0.580,60.000,229117.000,1.000
0.034,10.241,6.648,-3.014,-3.265,-2.173,-9.948,-1.302,-0.023,0.937,-0.373,2.136,2.655,-0.671,60.000,229118.000,1.000
-2.910,4.827,0.127,-8.067,-7.921,-7.557,-13.115,-6.043,-0.021,0.937,-0.377,2.136,2.686,-0.610,60.000,229119.000,1.000
0.640,-8.635,-3.643,-1.808,-4.422,-7.231,-5.016,-7.080,-0.024,0.938,-0.377,2.136,2.686,-0.763,60.000,229120.000,1.000
4.525,-12.923,-0.827,5.308,1.166,-3.498,2.571,-4.256,-0.025,0.939,-0.375,2.167,2.686,-0.793,60.000,229121.000,1.000
1.488,-3.784,3.224,1.821,0.092,-3.410,-1.337,-2.244,-0.025,0.937,-0.375,2.075,2.625,-0.793,60.000,229122.000,1.000
-6.392,4.655,1.630,-8.709,-6.827,-8.618,-11.484,-3.867,-0.028,0.936,-0.375,2.075,2.655,-0.732,60.000,229123.000,1.000
-10.300,-0.432,-4.531,-12.695,-10.534,-13.051,-13.685,-6.344,-0.025,0.937,-0.375,2.045,2.655,-0.763,60.000,229124.000,1.000
-6.531,-12.757,-7.757,-5.364,-6.426,-11.345,-4.528,-5.424,-0.027,0.940,-0.374,2.075,2.625,-0.793,60.000,229125.000,1.000
-1.262,-15.512,-4.437,2.719,-0.672,-6.259,3.878,-1.518,-0.027,0.941,-0.375,1.953,2.625,-0.641,60.000,229126.000,1.000
-1.796,-4.536,0.323,0.443,-1.434,-4.754,0.693,0.773,-0.026,0.942,-0.375,1.984,2.686,-0.641,60.000,229127.000,1.000
-6.468,5.934,-0.060,-8.351,-7.289,-8.207,-8.592,-0.924,-0.026,0.942,-0.378,1.923,2.747,-0.671,60.000,229128.000,1.000
-7.299,2.696,-4.595,-10.399,-9.218,-10.567,-9.887,-3.586,-0.024,0.941,-0.378,1.770,2.655,-0.671,60.000,229129.000,1.000
-1.650,-8.672,-6.469,-1.965,-3.533,-7.112,-0.454,-3.381,-0.025,0.942,-0.378,1.801,2.625,-0.671,60.000,229130.000,1.000
3.505,-12.044,-2.921,5.355,2.428,-1.438,6.802,-1.313,-0.026,0.939,-0.375,1.770,2.747,-0.641,60.000,229131.000,1.000
0.814,-3.356,0.622,0.339,0.036,-0.847,0.884,-1.946,-0.028,0.940,-0.375,1.709,2.747,-0.671,60.000,229132.000,1.000
-7.325,3.821,-2.009,-12.239,-8.761,-6.363,-11.989,-6.930,-0.027,0.941,-0.378,1.740,2.777,-0.641,60.000,229133.000,1.000
-11.601,-2.436,-8.812,-17.536,-13.647,-11.020,-16.343,-12.082,-0.026,0.941,-0.377,1.770,2.808,-0.549,60.000,229134.000,1.000
-7.927,-15.147,-11.747,-10.251,-9.471,-9.002,-7.980,-12.301,-0.024,0.941,-0.375,1.709,2.716,-0.549,60.000,229135.000,1.000
-2.493,-17.566,-7.374,-1.322,-2.867,-3.359,0.800,-8.094,-0.027,0.940,-0.377,1.587,2.563,-0.519,60.000,229136.000,1.000
-2.846,-6.202,-1.402,-2.637,-2.932,-1.646,-1.640,-4.845,-0.026,0.941,-0.374,1.526,2.625,-0.519,60.000,229137.000,1.000
-7.395,4.214,-0.837,-10.820,-8.780,-5.467,-10.412,-5.709,-0.025,0.940,-0.375,1.495,2.655,-0.549,60.000,229138.000,1.000
-7.921,0.660,-4.675,-12.483,-11.176,-8.454,-11.428,-7.856,-0.027,0.939,-0.375,1.495,2.686,-0.519,60.000,229139.000,1.000
-1.522,-10.757,-5.905,-3.446,-5.807,-5.395,-1.534,-7.100,-0.027,0.940,-0.373,1.465,2.747,-0.549,60.000,229140.000,1.000
4.817,-13.662,-1.712,5.040,0.495,0.341,6.813,-4.047,-0.027,0.940,-0.375,1.343,2.716,-0.519,60.000,229141.000,1.000
3.562,-4.165,2.484,1.825,-0.698,1.430,2.878,-3.074,-0.024,0.939,-0.378,1.282,2.686,-0.427,60.000,229142.000,1.000
-3.071,3.828,0.626,-8.561,-7.538,-3.265,-7.280,-5.856,-0.022,0.938,-0.377,1.282,2.747,-0.397,60.000,229143.000,1.000
-6.189,-2.027,-5.391,-11.938,-10.278,-7.102,-9.022,-8.623,-0.023,0.937,-0.378,1.251,2.716,-0.397,60.000,229144.000,1.000
-2.452,-15.288,-8.108,-3.894,-4.713,-4.831,0.624,-7.074,-0.024,0.936,-0.375,1.221,2.777,-0.397,60.000,229145.000,1.000
1.363,-19.632,-4.777,4.089,1.771,0.058,8.549,-2.479,-0.023,0.935,-0.375,1.221,2.869,-0.366,60.000,229146.000,1.000
-2.317,-11.599,-1.419,0.218,-0.046,-0.035,3.211,-0.533,-0.022,0.934,-0.375,1.251,2.869,-0.366,60.000,229147.000,1.000
-11.408,-5.434,-4.757,-11.551,-8.824,-6.462,-9.681,-4.064,-0.021,0.934,-0.372,1.129,2.930,-0.336,60.000,229148.000,1.000
-16.700,-13.077,-12.761,-16.840,-14.385,-12.310,-14.760,-9.242,-0.023,0.935,-0.375,1.129,3.021,-0.366,60.000,229149.000,1.000
-13.860,-27.002,-16.806,-10.207,-11.157,-11.444,-7.453,-10.496,-0.023,0.934,-0.371,1.160,3.113,-0.244,60.000,229150.000,1.000
-8.596,-29.893,-12.738,-2.005,-5.058,-6.343,0.592,-7.555,-0.023,0.935,-0.372,1.038,3.052,-0.214,60.000,229151.000,1.000
-8.084,-17.991,-5.848,-3.456,-4.599,-4.111,-1.699,-5.087,-0.023,0.936,-0.371,1.038,3.021,-0.214,60.000,229152.000,1.000
-10.765,-6.034,-3.244,-10.875,-8.825,-6.370,-9.344,-5.821,-0.024,0.938,-0.372,0.977,3.021,-0.122,60.000,229153.000,1.000
-8.898,-7.180,-4.430,-11.090,-8.987,-7.219,-8.689,-6.876,-0.023,0.935,-0.370,0.977,3.082,-0.305,60.000,229154.000,1.000
-0.294,-15.630,-2.995,-0.442,-1.510,-2.112,2.709,-4.290,-0.022,0.936,-0.370,1.007,3.052,-0.427,60.000,229155.000,1.000
7.477,-15.673,3.338,9.290,6.079,4.936,11.658,0.750,-0.021,0.936,-0.370,1.007,3.143,-0.488,60.000,229156.000,1.000
6.805,-4.208,8.772,6.617,4.972,6.268,6.985,2.946,-0.021,0.936,-0.371,0.977,3.113,-0.427,60.000,229157.000,1.000
0.473,4.679,7.348,-3.837,-2.685,1.075,-4.913,0.038,-0.022,0.935,-0.371,0.916,3.296,-0.366,60.000,229158.000,1.000
-1.779,-0.721,1.621,-7.365,-6.190,-3.134,-8.258,-3.792,-0.021,0.935,-0.370,0.946,3.296,-0.366,60.000,229159.000,1.000
3.894,-13.187,-0.228,1.025,-0.334,-0.330,1.138,-3.166,-0.021,0.936,-0.371,0.854,3.418,-0.458,60.000,229160.000,1.000
10.672,-16.092,4.822,10.132,7.948,6.257,10.761,1.599,-0.020,0.936,-0.373,0.793,3.418,-0.488,60.000,229161.000,1.000
10.641,-6.042,10.598,8.197,9.237,8.827,8.938,5.212,-0.021,0.936,-0.375,0.854,3.479,-0.549,60.000,229162.000,1.000
5.461,2.618,10.041,-0.940,4.259,5.602,0.692,4.611,-0.021,0.937,-0.371,0.885,3.540,-0.580,60.000,229163.000,1.000
3.643,-2.307,4.593,-3.354,2.228,2.801,0.126,2.759,-0.022,0.937,-0.370,0.885,3.540,-0.641,60.000,229164.000,1.000
8.330,-14.145,1.765,5.363,7.367,5.386,10.018,3.861,-0.022,0.935,-0.374,0.916,3.601,-0.610,60.000,229165.000,1.000
12.569,-17.010,4.327,13.552,12.441,9.517,17.124,6.844,-0.024,0.935,-0.375,0.885,3.632,-0.641,60.000,229166.000,1.000
8.863,-8.200,6.373,9.340,8.565,7.536,10.089,6.532,-0.023,0.936,-0.374,0.946,3.601,-0.671,60.000,229167.000,1.000
-0.106,-2.002,1.846,-2.881,-2.132,-1.179,-4.599,1.040,-0.024,0.934,-0.372,0.916,3.601,-0.702,60.000,229168.000,1.000
-4.644,-9.638,-6.466,-8.233,-8.720,-8.626,-10.827,-5.020,-0.025,0.935,-0.373,0.946,3.601,-0.702,60.000,229169.000,1.000
-0.969,-23.264,-10.161,-1.528,-5.809,-8.405,-4.255,-6.262,-0.024,0.936,-0.373,0.977,3.601,-0.702,60.000,229170.000,1.000
3.945,-26.241,-6.277,6.097,-0.335,-3.818,2.528,-3.387,-0.024,0.937,-0.375,0.977,3.601,-0.732,60.000,229171.000,1.000
2.301,-15.639,-1.018,3.137,-1.509,-2.823,-1.974,-1.800,-0.025,0.936,-0.369,1.129,3.601,-0.671,60.000,229172.000,1.000
-3.844,-6.252,-1.325,-6.241,-8.180,-7.193,-12.304,-4.170,-0.025,0.936,-0.370,1.160,3.632,-0.732,60.000,229173.000,1.000
-5.818,-10.609,-5.858,-8.338,-11.010,-10.767,-14.181,-7.180,-0.025,0.936,-0.370,1.160,3.571,-0.763,60.000,229174.000,1.000
-0.607,-22.127,-7.358,0.653,-5.931,-8.667,-4.839,-6.556,-0.026,0.936,-0.369,1.251,3.571,-0.793,60.000,229175.000,1.000
4.882,-24.465,-2.952,8.976,-0.047,-4.413,2.816,-3.188,-0.025,0.937,-0.371,1.160,3.510,-0.732,60.000,229176.000,1.000
3.373,-14.126,1.868,5.337,-1.808,-5.032,-1.983,-1.819,-0.028,0.936,-0.376,1.312,3.510,-0.610,60.000,229177.000,1.000
-2.522,-4.937,1.136,-5.367,-8.933,-10.789,-12.579,-4.092,-0.025,0.937,-0.375,1.312,3.510,-0.610,60.000,229178.000,1.000
-3.658,-8.437,-2.970,-8.444,-10.988,-14.014,-13.484,-5.914,-0.025,0.937,-0.375,1.434,3.418,-0.580,60.000,229179.000,1.000
2.982,-17.688,-3.054,0.547,-3.491,-9.144,-1.483,-3.114,-0.023,0.938,-0.374,1.373,3.448,-0.427,60.000,229180.000,1.000
9.798,-17.010,3.025,9.673,5.803,-0.356,9.733,2.436,-0.024,0.938,-0.373,1.434,3.448,-0.519,60.000,229181.000,1.000
8.627,-4.060,8.754,6.903,7.162,3.753,7.904,4.811,-0.027,0.938,-0.376,1.465,3.387,-0.458,60.000,229182.000,1.000
1.656,6.416,7.531,-3.605,1.648,1.232,-1.637,1.616,-0.026,0.940,-0.374,1.526,3.357,-0.610,60.000,229183.000,1.000
-1.634,2.626,1.694,-7.405,-0.860,-1.197,-3.875,-2.837,-0.027,0.940,-0.371,1.648,3.235,-0.610,60.000,229184.000,1.000
2.809,-7.992,-0.413,0.451,4.598,2.364,5.161,-3.059,-0.026,0.940,-0.371,1.556,3.143,-0.488,60.000,229185.000,1.000
8.515,-8.945,4.449,8.908,11.423,8.972,13.337,0.688,-0.025,0.938,-0.371,1.526,2.991,-0.671,60.000,229186.000,1.000
7.742,2.512,10.166,6.445,10.832,11.121,9.655,3.301,-0.025,0.935,-0.372,1.587,3.021,-0.549,60.000,229187.000,1.000
2.126,11.417,9.608,-2.981,4.061,7.133,-0.382,2.071,-0.024,0.934,-0.375,1.587,2.991,-0.488,60.000,229188.000,1.000
0.096,5.536,4.047,-5.678,0.451,3.207,-2.587,0.091,-0.024,0.931,-0.375,1.556,3.052,-0.488,60.000,229189.000,1.000
4.906,-7.819,0.961,2.454,4.253,4.524,5.922,1.325,-0.025,0.932,-0.372,1.587,3.021,-0.549,60.000,229190.000,1.000
10.085,-11.719,3.583,10.049,8.688,7.971,12.534,4.664,-0.025,0.933,-0.375,1.648,2.960,-0.549,60.000,229191.000,1.000
8.681,-2.644,6.769,6.114,5.587,6.669,6.708,5.351,-0.023,0.932,-0.372,1.862,2.869,-0.519,60.000,229192.000,1.000
3.305,5.089,4.678,-4.489,-2.865,-0.066,-5.109,1.697,-0.023,0.934,-0.375,1.923,2.808,-0.641,60.000,229193.000,1.000
2.762,-0.559,-0.621,-7.511,-6.744,-5.340,-8.067,-2.250,-0.022,0.930,-0.371,1.892,2.869,-0.580,60.000,229194.000,1.000
9.821,-12.553,-1.724,1.161,-1.870,-3.941,0.730,-1.905,-0.021,0.930,-0.373,1.984,2.930,-0.610,60.000,229195.000,1.000
17.245,-14.347,3.958,9.982,4.578,0.699,8.365,1.870,-0.021,0.931,-0.374,2.106,2.869,-0.549,60.000,229196.000,1.000
17.662,-2.557,10.530,7.829,4.100,1.522,4.119,4.158,-0.023,0.930,-0.375,2.197,2.869,-0.610,60.000,229197.000,1.000
13.545,8.433,11.524,-0.642,-1.363,-2.218,-5.633,2.816,-0.026,0.931,-0.377,2.258,2.838,-0.641,60.000,229198.000,1.000
13.624,6.238,8.563,-1.524,-2.185,-3.879,-6.197,1.390,-0.026,0.933,-0.377,2.258,2.777,-0.671,60.000,229199.000,1.000
20.610,-2.840,8.754,8.896,5.389,1.176,4.985,3.957,-0.025,0.935,-0.378,2.319,2.869,-0.793,60.000,229200.000,1.000
27.025,-3.375,14.270,18.542,13.457,8.480,14.341,8.958,-0.026,0.938,-0.377,2.350,2.838,-0.885,60.000,229201.000,1.000
25.021,6.903,18.691,15.677,12.622,9.699,10.305,10.788,-0.025,0.938,-0.376,2.289,2.686,-0.854,60.000,229202.000,1.000
16.886,13.438,15.452,4.666,4.406,3.472,-1.189,7.119,-0.026,0.938,-0.374,2.258,2.655,-0.916,60.000,229203.000,1.000
11.934,5.066,6.990,-0.158,-0.965,-2.832,-5.068,2.021,-0.026,0.938,-0.373,2.167,2.594,-1.038,60.000,229204.000,1.000
14.137,-9.808,2.012,6.068,1.763,-2.787,2.307,0.695,-0.024,0.936,-0.375,2.167,2.625,-1.038,60.000,229205.000,1.000
17.345,-13.814,4.399,12.641,6.446,1.118,8.632,2.882,-0.024,0.934,-0.377,2.136,2.533,-1.068,60.000,229206.000,1.000
14.450,-3.744,8.699,8.721,4.926,1.883,3.245,3.806,-0.024,0.936,-0.379,2.075,2.533,-1.068,60.000,229207.000,1.000
7.702,5.653,8.237,-1.170,-0.983,-1.634,-7.599,1.304,-0.024,0.935,-0.377,2.106,2.502,-1.099,60.000,229208.000,1.000
5.734,2.281,4.386,-3.242,-1.747,-2.946,-9.028,-0.878,-0.024,0.938,-0.379,1.923,2.533,-1.068,60.000,229209.000,1.000
11.307,-6.859,4.095,6.165,6.361,2.723,1.904,1.632,-0.022,0.938,-0.380,1.984,2.686,-1.099,60.000,229210.000,1.000
16.952,-5.944,9.407,14.907,15.336,11.152,11.890,7.307,-0.020,0.939,-0.378,2.045,2.716,-1.038,60.000,229211.000,1.000
14.935,7.260,13.990,11.331,15.733,14.349,9.435,10.179,-0.022,0.937,-0.382,1.984,2.594,-1.129,60.000,229212.000,1.000
8.006,18.060,11.833,0.311,9.332,11.330,0.517,7.632,-0.021,0.937,-0.380,1.923,2.747,-1.160,60.000,229213.000,1.000
5.940,15.102,5.956,-3.184,6.721,9.485,0.199,3.934,-0.022,0.937,-0.381,1.862,2.777,-1.038,60.000,229214.000,1.000
12.228,5.983,4.631,5.541,12.817,14.367,11.603,4.477,-0.022,0.937,-0.384,1.831,2.869,-1.038,60.000,229215.000,1.000
19.119,6.491,10.082,14.593,20.124,21.840,21.302,8.595,-0.023,0.938,-0.383,1.923,2.960,-1.068,60.000,229216.000,1.000
17.866,18.338,15.200,11.900,18.969,23.422,17.550,10.691,-0.024,0.938,-0.382,1.923,2.838,-0.854,60.000,229217.000,1.000
10.015,26.188,12.785,1.477,10.469,17.441,6.037,7.771,-0.025,0.938,-0.381,1.984,2.930,-0.824,60.000,229218.000,1.000
4.455,18.292,4.760,-2.815,4.424,10.786,1.502,3.026,-0.024,0.938,-0.383,1.892,2.869,-0.763,60.000,229219.000,1.000
5.047,2.743,-0.762,3.170,5.580,9.293,7.211,0.994,-0.026,0.939,-0.380,1.862,2.960,-0.793,60.000,229220.000,1.000
6.228,-2.884,-0.164,8.386,7.634,10.352,11.020,1.401,-0.027,0.939,-0.386,1.770,2.991,-0.793,60.000,229221.000,1.000
2.151,5.491,1.753,2.650,3.101,7.726,3.284,0.270,-0.027,0.940,-0.383,1.709,2.991,-0.763,60.000,229222.000,1.000
-3.814,14.173,-0.344,-8.287,-5.028,1.508,-8.524,-3.467,-0.027,0.938,-0.383,1.526,2.991,-0.732,60.000,229223.000,1.000
-2.860,11.530,-4.021,-9.837,-6.441,-1.004,-9.122,-5.492,-0.027,0.938,-0.381,1.556,2.930,-0.580,60.000,229224.000,1.000
6.901,4.078,-2.305,1.517,2.442,4.846,3.771,-1.702,-0.027,0.939,-0.381,1.587,2.991,-0.519,60.000,229225.000,1.000
16.634,6.551,5.933,12.858,12.846,14.043,15.701,5.669,-0.027,0.939,-0.381,1.495,2.930,-0.488,60.000,229226.000,1.000
17.364,20.071,13.054,11.578,14.412,17.543,14.121,10.013,-0.025,0.939,-0.383,1.526,2.960,-0.519,60.000,229227.000,1.000
10.907,29.161,11.752,1.499,7.950,13.248,4.121,8.108,-0.025,0.936,-0.380,1.556,2.899,-0.519,60.000,229228.000,1.000
6.614,22.326,4.267,-3.293,3.295,7.868,0.276,3.588,-0.028,0.939,-0.379,1.526,2.838,-0.519,60.000,229229.000,1.000
8.742,8.101,-0.590,2.039,5.677,7.539,6.365,1.741,-0.028,0.939,-0.378,1.404,2.899,-0.458,60.000,229230.000,1.000
11.724,4.204,1.419,7.199,9.389,10.101,10.977,2.817,-0.026,0.935,-0.379,1.343,2.899,-0.580,60.000,229231.000,1.000
9.236,14.218,5.533,2.250,7.028,9.325,4.678,2.815,-0.026,0.934,-0.383,1.190,2.777,-0.549,60.000,229232.000,1.000
3.758,23.393,5.579,-7.632,0.732,4.553,-5.786,0.033,-0.026,0.935,-0.378,1.190,2.838,-0.427,60.000,229233.000,1.000
3.089,19.013,2.551,-9.010,-0.662,1.852,-6.459,-2.192,-0.027,0.935,-0.379,1.129,2.777,-0.488,60.000,229234.000,1.000
8.923,7.422,2.537,0.931,5.559,5.177,4.141,-0.310,-0.024,0.934,-0.381,1.129,2.716,-0.549,60.000,229235.000,1.000
13.747,4.616,7.371,9.913,11.436,10.245,12.310,4.044,-0.022,0.936,-0.379,1.160,2.777,-0.732,60.000,229236.000,1.000
10.699,13.696,11.321,6.854,8.733,9.881,7.447,5.671,-0.023,0.934,-0.384,1.129,2.686,-0.641,60.000,229237.000,1.000
2.926,20.533,8.647,-3.379,0.091,3.609,-3.737,2.369,-0.025,0.933,-0.381,1.007,2.716,-0.671,60.000,229238.000,1.000
-0.458,13.653,1.817,-6.803,-4.272,-1.546,-6.486,-2.174,-0.025,0.933,-0.376,1.129,2.777,-0.610,60.000,229239.000,1.000
3.527,0.658,-1.214,0.616,0.018,-0.263,2.005,-3.113,-0.025,0.933,-0.379,1.251,2.747,-0.702,60.000,229240.000,1.000
7.889,-1.941,2.532,7.683,5.970,4.184,9.093,-0.651,-0.024,0.933,-0.379,1.160,2.686,-0.763,60.000,229241.000,1.000
5.403,8.583,7.196,3.764,5.113,4.829,4.472,0.741,-0.025,0.934,-0.379,1.160,2.747,-0.671,60.000,229242.000,1.000
-1.339,17.519,6.314,-6.184,-0.756,0.989,-5.296,-1.066,-0.024,0.934,-0.378,1.099,2.686,-0.732,60.000,229243.000,1.000
-3.508,13.003,1.629,-8.370,-2.294,-0.720,-5.828,-2.877,-0.024,0.935,-0.380,1.160,2.747,-0.763,60.000,229244.000,1.000
1.618,2.173,0.298,0.555,3.971,4.164,4.908,-0.992,-0.025,0.934,-0.381,1.038,2.747,-0.580,60.000,229245.000,1.000
6.809,1.059,4.674,8.626,10.430,11.294,13.463,3.232,-0.025,0.934,-0.375,0.946,2.747,-0.580,60.000,229246.000,1.000
4.894,12.269,8.930,4.962,8.763,13.019,9.273,5.039,-0.025,0.935,-0.377,0.977,2.747,-0.702,60.000,229247.000,1.000
-1.356,21.296,7.144,-5.251,1.490,8.576,-0.860,2.852,-0.023,0.935,-0.378,0.946,2.747,-0.732,60.000,229248.000,1.000
-3.136,16.526,1.613,-7.879,-1.300,5.002,-2.138,0.547,-0.024,0.936,-0.379,0.946,2.655,-0.702,60.000,229249.000,1.000
2.091,5.174,-0.199,0.685,4.293,7.471,7.868,2.134,-0.026,0.935,-0.378,0.946,2.655,-0.732,60.000,229250.000,1.000
7.015,3.175,4.114,8.629,10.742,12.386,15.985,6.175,-0.025,0.936,-0.377,0.916,2.716,-0.732,60.000,229251.000,1.000
4.630,13.135,8.665,5.255,9.664,12.762,11.834,7.766,-0.023,0.934,-0.378,0.824,2.747,-0.763,60.000,229252.000,1.000
-2.105,20.735,7.374,-4.134,3.417,8.158,2.221,5.324,-0.021,0.937,-0.382,0.793,2.716,-0.793,60.000,229253.000,1.000
-4.557,14.429,2.103,-5.706,1.546,5.185,1.461,2.747,-0.023,0.937,-0.379,0.824,2.686,-0.641,60.000,229254.000,1.000
-0.574,1.326,-0.263,3.495,7.138,8.001,11.131,3.976,-0.025,0.936,-0.379,0.916,2.625,-0.732,60.000,229255.000,1.000
2.405,-2.687,2.377,11.131,12.111,12.107,17.380,7.424,-0.025,0.938,-0.379,0.732,2.625,-0.702,60.000,229256.000,1.000
-2.306,5.093,4.365,6.393,8.130,10.230,9.770,8.029,-0.024,0.937,-0.381,0.641,2.625,-0.671,60.000,229257.000,1.000
-11.000,10.738,0.422,-4.959,-1.711,2.441,-4.114,4.294,-0.024,0.938,-0.382,0.519,2.686,-0.732,60.000,229258.000,1.000
-14.076,3.532,-6.422,-8.173,-6.591,-3.426,-8.481,0.620,-0.024,0.936,-0.378,0.549,2.655,-0.641,60.000,229259.000,1.000
-8.847,-8.631,-8.442,0.533,-2.197,-1.906,-0.277,1.578,-0.024,0.935,-0.379,0.458,2.686,-0.610,60.000,229260.000,1.000
-3.157,-9.847,-3.610,9.052,3.913,3.154,7.419,5.878,-0.023,0.937,-0.378,0.427,2.686,-0.732,60.000,229261.000,1.000
-4.861,1.724,1.498,6.130,2.958,4.165,3.881,8.154,-0.023,0.937,-0.380,0.397,2.625,-0.610,60.000,229262.000,1.000
-11.699,10.671,0.196,-3.533,-3.347,-0.084,-4.803,5.936,-0.022,0.937,-0.381,0.427,2.563,-0.549,60.000,229263.000,1.000
-15.112,4.770,-5.784,-6.370,-5.853,-3.425,-4.977,2.542,-0.024,0.937,-0.381,0.366,2.533,-0.610,60.000,229264.000,1.000
-12.230,-8.592,-8.985,1.035,-1.093,-1.294,4.987,2.316,-0.023,0.938,-0.381,0.275,2.502,-0.641,60.000,229265.000,1.000
-9.526,-12.615,-6.407,7.309,3.737,2.724,11.941,4.739,-0.024,0.936,-0.381,0.214,2.563,-0.732,60.000,229266.000,1.000
-13.325,-3.921,-3.297,2.277,0.769,1.833,5.914,5.367,-0.023,0.938,-0.381,0.183,2.594,-0.641,60.000,229267.000,1.000
-20.479,3.456,-5.434,-8.610,-7.357,-4.301,-5.922,2.231,-0.024,0.938,-0.380,0.214,2.655,-0.702,60.000,229268.000,1.000
-22.312,-1.911,-10.798,-11.516,-10.759,-8.707,-8.728,-1.357,-0.026,0.938,-0.378,0.153,2.563,-0.702,60.000,229269.000,1.000
-16.586,-12.866,-12.361,-3.308,-5.813,-6.585,-0.159,-1.574,-0.027,0.938,-0.378,0.122,2.472,-0.671,60.000,229270.000,1.000
-10.938,-13.933,-8.143,3.918,-0.291,-2.037,6.506,0.291,-0.025,0.938,-0.379,0.092,2.472,-0.641,60.000,229271.000,1.000
-12.810,-3.367,-4.408,-0.711,-2.893,-2.618,0.623,-0.564,-0.024,0.937,-0.378,0.031,2.441,-0.702,60.000,229272.000,1.000
-19.484,3.935,-7.261,-11.924,-11.411,-9.058,-11.255,-5.650,-0.021,0.938,-0.378,0.122,2.441,-0.610,60.000,229273.000,1.000
-21.934,-3.147,-14.200,-15.517,-15.811,-14.267,-14.497,-10.644,-0.020,0.937,-0.376,0.031,2.441,-0.671,60.000,229274.000,1.000
-17.319,-16.493,-17.431,-7.874,-12.039,-13.069,-6.587,-10.955,-0.020,0.935,-0.374,0.031,2.472,-0.610,60.000,229275.000,1.000
-12.849,-19.693,-14.473,-0.884,-7.472,-9.214,-0.469,-7.869,-0.021,0.935,-0.377,0.061,2.533,-0.732,60.000,229276.000,1.000
-15.677,-10.351,-11.421,-5.438,-10.488,-9.956,-6.416,-6.805,-0.023,0.938,-0.375,0.000,2.533,-0.671,60.000,229277.000,1.000
-22.867,-3.066,-14.396,-16.377,-18.695,-15.811,-17.645,-9.998,-0.023,0.937,-0.374,0.031,2.563,-0.671,60.000,229278.000,1.000
-25.186,-8.957,-20.888,-19.519,-22.044,-19.640,-19.510,-13.451,-0.023,0.938,-0.374,0.153,2.502,-0.641,60.000,229279.000,1.000
-19.415,-20.015,-22.889,-10.988,-16.444,-16.239,-9.542,-12.287,-0.021,0.937,-0.374,0.153,2.594,-0.671,60.000,229280.000,1.000
-12.539,-20.204,-17.800,-2.443,-9.358,-9.485,-0.875,-7.524,-0.022,0.936,-0.374,0.061,2.808,-0.610,60.000,229281.000,1.000
-12.207,-7.990,-12.128,-5.089,-9.742,-7.302,-4.410,-4.996,-0.022,0.936,-0.376,0.092,2.899,-0.763,60.000,229282.000,1.000
-16.434,1.240,-12.590,-14.311,-15.909,-11.058,-14.044,-7.567,-0.021,0.935,-0.375,0.031,2.869,-0.732,60.000,229283.000,1.000
-16.735,-3.697,-16.930,-16.142,-18.019,-13.915,-15.290,-11.317,-0.023,0.935,-0.375,0.031,2.808,-0.702,60.000,229284.000,1.000
-10.275,-14.374,-17.212,-6.698,-11.813,-10.467,-5.481,-10.998,-0.023,0.934,-0.374,0.122,2.777,-0.671,60.000,229285.000,1.000
-4.041,-14.433,-10.982,2.359,-4.574,-4.311,2.460,-7.078,-0.023,0.935,-0.375,0.153,2.899,-0.793,60.000,229286.000,1.000
-5.309,-2.291,-4.890,-0.202,-5.166,-3.119,-2.099,-4.809,-0.022,0.934,-0.371,0.275,2.838,-0.854,60.000,229287.000,1.000
-11.654,6.469,-5.829,-9.941,-12.000,-8.133,-12.811,-6.873,-0.023,0.933,-0.370,0.275,2.899,-0.793,60.000,229288.000,1.000
-14.300,0.341,-11.717,-13.173,-15.479,-12.619,-15.138,-9.848,-0.023,0.932,-0.376,0.275,2.869,-0.763,60.000,229289.000,1.000
-10.218,-12.403,-14.532,-6.024,-11.377,-11.301,-6.428,-9.230,-0.023,0.932,-0.375,0.366,2.777,-0.824,60.000,229290.000,1.000
-6.167,-15.068,-11.248,0.398,-6.495,-7.521,0.578,-5.814,-0.024,0.933,-0.374,0.397,2.869,-0.854,60.000,229291.000,1.000
-9.009,-5.201,-7.547,-4.101,-8.779,-8.212,-4.384,-4.445,-0.024,0.935,-0.375,0.427,2.838,-0.885,60.000,229292.000,1.000
-15.881,2.552,-9.399,-14.094,-15.827,-13.827,-14.718,-7.020,-0.023,0.936,-0.374,0.397,2.838,-0.916,60.000,229293.000,1.000
-18.042,-2.949,-14.473,-15.729,-17.913,-17.338,-16.069,-9.639,-0.022,0.934,-0.374,0.488,2.930,-0.885,60.000,229294.000,1.000
-13.078,-13.828,-15.341,-6.002,-11.450,-13.772,-6.277,-8.027,-0.024,0.936,-0.372,0.488,2.838,-0.885,60.000,229295.000,1.000
-8.408,-14.238,-9.963,2.717,-4.227,-7.147,1.493,-3.671,-0.024,0.937,-0.372,0.458,2.869,-0.916,60.000,229296.000,1.000
-11.190,-2.666,-4.855,-0.700,-5.049,-5.248,-3.203,-2.058,-0.023,0.937,-0.372,0.549,2.747,-0.824,60.000,229297.000,1.000
-18.496,5.571,-6.400,-11.164,-11.923,-9.267,-13.743,-5.322,-0.025,0.936,-0.374,0.488,2.747,-0.977,60.000,229298.000,1.000
-21.027,-0.550,-11.962,-14.335,-14.812,-12.328,-15.431,-9.195,-0.024,0.937,-0.376,0.671,2.777,-0.885,60.000,229299.000,1.000
-15.294,-12.115,-13.057,-5.879,-9.110,-8.865,-5.434,-8.432,-0.025,0.936,-0.374,0.732,2.808,-0.793,60.000,229300.000,1.000
-7.971,-12.188,-6.683,3.126,-1.599,-2.215,3.530,-3.582,-0.025,0.937,-0.375,0.702,2.777,-0.977,60.000,229301.000,1.000
-6.690,0.943,0.588,1.754,-0.950,-0.059,0.700,-0.062,-0.026,0.936,-0.374,0.610,2.686,-0.977,60.000,229302.000,1.000
-9.887,11.330,1.432,-5.794,-5.892,-3.906,-8.106,-0.834,-0.025,0.937,-0.375,0.702,2.747,-1.007,60.000,229303.000,1.000
-9.620,6.989,-2.688,-6.482,-7.406,-7.202,-8.942,-2.784,-0.026,0.938,-0.375,0.763,2.625,-0.977,60.000,229304.000,1.000
-3.319,-4.227,-4.281,2.798,-1.838,-4.698,0.460,-1.691,-0.026,0.935,-0.377,0.702,2.594,-0.885,60.000,229305.000,1.000
2.135,-6.082,-0.708,10.286,3.547,0.118,7.185,1.396,-0.025,0.936,-0.374,0.671,2.655,-1.007,60.000,229306.000,1.000
-0.127,3.459,2.140,5.419,0.588,-0.020,1.059,1.520,-0.025,0.936,-0.372,0.763,2.716,-1.007,60.000,229307.000,1.000
-7.067,9.847,-1.530,-6.255,-8.011,-5.678,-10.805,-2.913,-0.024,0.938,-0.372,0.732,2.686,-0.946,60.000,229308.000,1.000
-9.254,2.825,-8.587,-10.080,-11.678,-9.439,-13.204,-7.215,-0.025,0.938,-0.372,0.793,2.533,-0.854,60.000,229309.000,1.000
-3.313,-8.742,-10.590,-1.901,-6.019,-5.917,-3.449,-6.300,-0.025,0.936,-0.371,0.824,2.502,-0.916,60.000,229310.000,1.000
3.642,-8.937,-5.156,6.535,1.214,0.608,4.914,-1.509,-0.026,0.935,-0.372,0.763,2.563,-0.885,60.000,229311.000,1.000
3.779,3.001,0.688,3.826,0.567,1.685,0.483,1.023,-0.026,0.936,-0.373,0.916,2.655,-0.854,60.000,229312.000,1.000
-0.889,11.203,-0.087,-5.635,-6.553,-4.079,-10.789,-1.700,-0.028,0.935,-0.372,0.946,2.625,-0.885,60.000,229313.000,1.000
-1.685,4.646,-5.232,-8.204,-10.281,-9.342,-14.235,-5.967,-0.024,0.935,-0.372,0.854,2.686,-0.946,60.000,229314.000,1.000
4.343,-7.877,-6.725,-0.244,-6.091,-8.087,-6.726,-6.764,-0.027,0.938,-0.372,0.977,2.502,-0.916,60.000,229315.000,1.000
10.098,-9.920,-2.110,6.701,-0.886,-3.575,-0.577,-4.621,-0.027,0.938,-0.373,1.160,2.533,-0.885,60.000,229316.000,1.000
8.234,0.046,2.063,1.990,-3.134,-3.432,-6.004,-4.557,-0.027,0.937,-0.373,1.068,2.441,-0.824,60.000,229317.000,1.000
1.389,6.679,-0.657,-9.161,-10.919,-8.956,-16.700,-8.788,-0.026,0.940,-0.373,1.068,2.441,-0.885,60.000,229318.000,1.000
-1.277,-0.883,-7.530,-12.572,-14.452,-13.430,-18.505,-13.314,-0.028,0.939,-0.371,1.160,2.350,-0.854,60.000,229319.000,1.000
3.669,-13.728,-9.992,-4.283,-9.404,-11.464,-8.994,-13.061,-0.025,0.938,-0.371,1.038,2.472,-0.854,60.000,229320.000,1.000
9.762,-15.056,-4.882,4.474,-2.541,-6.287,-0.737,-8.456,-0.026,0.936,-0.372,1.038,2.411,-0.824,60.000,229321.000,1.000
10.078,-2.914,1.779,3.236,-1.942,-4.901,-3.661,-4.403,-0.024,0.937,-0.371,1.160,2.411,-0.885,60.000,229322.000,1.000
6.923,7.390,3.303,-3.146,-5.671,-8.089,-11.228,-3.403,-0.026,0.938,-0.372,1.190,2.411,-0.885,60.000,229323.000,1.000
8.408,4.373,1.304,-1.550,-4.732,-9.340,-9.728,-2.477,-0.024,0.936,-0.375,1.251,2.228,-0.946,60.000,229324.000,1.000
16.727,-4.183,2.831,10.586,3.857,-4.182,2.219,1.956,-0.024,0.937,-0.373,1.160,2.197,-0.977,60.000,229325.000,1.000
24.252,-2.869,9.618,20.711,11.980,2.961,10.969,8.055,-0.025,0.935,-0.372,1.251,2.167,-1.068,60.000,229326.000,1.000
23.133,9.021,14.664,17.547,10.678,4.082,5.979,10.151,-0.024,0.935,-0.375,1.251,2.167,-1.251,60.000,229327.000,1.000
15.633,15.859,11.367,6.201,2.037,-1.852,-5.910,6.200,-0.024,0.937,-0.375,1.221,2.197,-1.190,60.000,229328.000,1.000
11.014,7.169,2.719,1.225,-3.551,-7.517,-9.688,0.858,-0.021,0.937,-0.374,1.129,2.228,-1.099,60.000,229329.000,1.000
13.311,-7.357,-2.142,7.186,-1.021,-6.895,-2.275,-0.235,-0.024,0.935,-0.376,1.190,2.319,-1.129,60.000,229330.000,1.000
16.795,-10.221,0.553,13.395,3.446,-2.778,4.079,2.638,-0.025,0.938,-0.375,1.160,2.289,-1.160,60.000,229331.000,1.000
14.976,0.802,5.127,9.630,1.961,-2.098,-0.544,4.363,-0.026,0.937,-0.376,1.221,2.197,-1.160,60.000,229332.000,1.000
10.177,10.344,4.984,0.739,-3.640,-5.858,-9.701,2.382,-0.026,0.936,-0.374,1.160,2.289,-1.221,60.000,229333.000,1.000
10.091,6.675,1.582,-0.255,-4.523,-7.824,-9.738,0.025,-0.024,0.938,-0.374,1.099,2.319,-1.190,60.000,229334.000,1.000
16.197,-2.801,1.586,9.148,2.181,-3.722,0.684,1.376,-0.024,0.938,-0.374,1.068,2.319,-1.160,60.000,229335.000,1.000
20.692,-2.703,6.752,16.821,8.665,2.239,8.191,5.221,-0.024,0.938,-0.375,1.190,2.411,-1.129,60.000,229336.000,1.000
16.685,8.404,10.964,12.446,6.871,2.876,2.970,6.593,-0.025,0.936,-0.374,1.221,2.472,-1.099,60.000,229337.000,1.000
7.576,15.674,8.464,1.667,-0.453,-2.156,-7.677,3.619,-0.028,0.935,-0.373,1.129,2.380,-0.977,60.000,229338.000,1.000
2.491,8.413,1.774,-1.763,-3.503,-5.893,-9.309,0.054,-0.029,0.937,-0.374,1.129,2.289,-1.068,60.000,229339.000,1.000
4.026,-4.878,-1.632,5.027,1.202,-3.500,-0.067,0.046,-0.028,0.937,-0.374,1.099,2.380,-1.038,60.000,229340.000,1.000
5.215,-7.661,0.691,10.230,6.309,1.466,7.178,2.530,-0.029,0.937,-0.372,1.160,2.289,-1.038,60.000,229341.000,1.000
-0.211,2.547,3.304,4.050,4.253,2.570,3.199,3.090,-0.028,0.936,-0.372,1.099,2.289,-1.007,60.000,229342.000,1.000
-8.707,11.318,0.894,-7.354,-1.887,-0.131,-4.401,0.481,-0.027,0.938,-0.372,1.038,2.319,-0.916,60.000,229343.000,1.000
-11.653,7.333,-4.129,-10.089,-2.568,-0.138,-1.726,-1.454,-0.028,0.938,-0.373,0.946,2.319,-1.068,60.000,229344.000,1.000
-7.230,-2.336,-4.929,-1.534,4.854,6.064,11.743,0.907,-0.027,0.939,-0.372,1.038,2.533,-0.946,60.000,229345.000,1.000
-3.104,-2.824,0.019,6.018,11.973,13.180,21.516,5.680,-0.026,0.939,-0.373,1.068,2.441,-0.793,60.000,229346.000,1.000
-6.377,6.787,4.117,1.942,10.078,13.068,16.841,7.404,-0.028,0.938,-0.375,1.007,2.472,-0.916,60.000,229347.000,1.000
-14.343,11.366,1.079,-8.546,1.441,4.966,4.560,3.927,-0.027,0.939,-0.374,1.007,2.563,-0.854,60.000,229348.000,1.000
-18.365,0.740,-6.566,-11.802,-3.922,-3.490,-0.441,-0.810,-0.026,0.938,-0.375,1.068,2.563,-0.854,60.000,229349.000,1.000
-15.561,-15.341,-10.637,-4.519,-1.581,-5.875,4.922,-2.011,-0.025,0.937,-0.374,1.099,2.655,-0.671,60.000,229350.000,1.000
-12.265,-19.339,-7.904,2.032,2.082,-4.312,8.890,-0.177,-0.026,0.937,-0.373,1.099,2.686,-0.580,60.000,229351.000,1.000
-14.480,-8.701,-3.585,-1.804,-0.187,-4.848,2.528,0.333,-0.025,0.938,-0.375,1.190,2.747,-0.519,60.000,229352.000,1.000
-18.925,1.622,-3.351,-10.149,-5.650,-7.971,-6.924,-1.988,-0.026,0.935,-0.375,1.190,2.686,-0.427,60.000,229353.000,1.000
-17.599,-0.236,-5.460,-9.680,-5.329,-7.946,-6.022,-3.569,-0.026,0.935,-0.374,1.190,2.838,-0.549,60.000,229354.000,1.000
-9.558,-7.716,-3.898,1.458,2.848,-1.751,5.532,-1.094,-0.027,0.935,-0.377,1.129,2.716,-0.580,60.000,229355.000,1.000
-3.248,-6.415,2.242,10.370,10.197,5.373,13.472,3.320,-0.027,0.933,-0.375,1.190,2.808,-0.519,60.000,229356.000,1.000
-5.741,4.683,6.600,6.581,8.460,6.076,7.897,4.518,-0.028,0.934,-0.372,1.099,2.838,-0.549,60.000,229357.000,1.000
-13.318,11.231,3.976,-3.813,0.891,0.660,-3.329,1.177,-0.028,0.936,-0.374,1.282,2.808,-0.427,60.000,229358.000,1.000
-16.197,3.739,-2.140,-6.398,-1.939,-2.990,-5.122,-2.217,-0.026,0.934,-0.375,1.312,2.808,-0.610,60.000,229359.000,1.000
-11.171,-8.250,-3.590,2.139,3.955,0.489,4.645,-1.138,-0.027,0.934,-0.374,1.343,2.747,-0.549,60.000,229360.000,1.000
-5.215,-8.321,1.916,9.953,11.105,7.236,12.770,3.139,-0.027,0.933,-0.375,1.434,2.991,-0.671,60.000,229361.000,1.000
-5.563,4.523,7.875,6.628,11.099,9.678,9.073,5.413,-0.025,0.933,-0.376,1.526,2.899,-0.580,60.000,229362.000,1.000
-10.095,14.174,7.674,-2.578,5.880,6.627,0.117,3.567,-0.026,0.934,-0.373,1.495,2.899,-0.671,60.000,229363.000,1.000
-10.973,9.002,3.186,-4.288,4.527,4.339,-0.316,1.262,-0.026,0.935,-0.373,1.526,2.899,-0.549,60.000,229364.000,1.000
-6.184,-2.780,1.594,4.189,10.172,7.300,9.318,2.666,-0.022,0.936,-0.373,1.587,2.960,-0.580,60.000,229365.000,1.000
-2.771,-4.975,5.025,10.891,15.326,11.650,15.965,6.462,-0.024,0.935,-0.375,1.495,2.991,-0.610,60.000,229366.000,1.000
-7.042,4.202,7.557,5.694,12.240,10.581,10.107,7.561,-0.025,0.935,-0.375,1.587,3.235,-0.671,60.000,229367.000,1.000
-15.419,10.071,3.682,-5.552,3.866,4.115,-0.824,4.167,-0.026,0.937,-0.375,1.648,3.204,-0.732,60.000,229368.000,1.000
-18.848,2.249,-3.665,-8.903,0.075,-0.521,-2.532,0.333,-0.025,0.937,-0.378,1.709,3.204,-0.702,60.000,229369.000,1.000
-14.800,-10.598,-6.698,-1.322,4.299,1.434,6.484,0.523,-0.026,0.936,-0.376,1.587,3.265,-0.793,60.000,229370.000,1.000
-10.415,-12.479,-3.194,5.429,8.995,5.888,12.889,3.672,-0.027,0.935,-0.375,1.617,3.265,-0.885,60.000,229371.000,1.000
-12.510,-2.126,0.557,1.241,6.146,5.571,6.912,4.849,-0.026,0.938,-0.377,1.648,3.326,-0.854,60.000,229372.000,1.000
-18.174,5.251,-1.561,-8.307,-1.612,0.021,-4.131,2.211,-0.027,0.934,-0.377,1.648,3.418,-0.854,60.000,229373.000,1.000
-18.884,-1.038,-7.095,-9.658,-4.571,-3.799,-5.826,-0.347,-0.027,0.937,-0.377,1.556,3.357,-0.946,60.000,229374.000,1.000
-12.486,-12.546,-8.578,-0.199,0.560,-1.229,3.486,1.311,-0.026,0.937,-0.378,1.617,3.418,-0.946,60.000,229375.000,1.000
-6.435,-13.618,-4.101,7.789,5.934,3.465,10.360,5.543,-0.025,0.937,-0.379,1.678,3.479,-0.977,60.000,229376.000,1.000
-7.636,-3.195,-0.088,3.832,3.327,2.896,4.767,7.005,-0.027,0.938,-0.379,1.648,3.479,-0.916,60.000,229377.000,1.000
-12.998,3.658,-2.492,-6.450,-4.526,-3.250,-6.149,3.894,-0.027,0.940,-0.378,1.587,3.510,-0.977,60.000,229378.000,1.000
-13.854,-3.423,-8.618,-9.271,-7.755,-7.792,-8.106,0.147,-0.024,0.941,-0.378,1.587,3.540,-1.068,60.000,229379.000,1.000
-8.001,-15.526,-10.711,-1.713,-2.890,-5.761,0.593,-0.213,-0.025,0.942,-0.375,1.556,3.632,-1.129,60.000,229380.000,1.000
-2.600,-16.339,-6.303,4.575,2.650,-0.854,6.994,1.499,-0.027,0.941,-0.379,1.526,3.540,-1.160,60.000,229381.000,1.000
-3.957,-4.284,-1.160,0.036,1.175,0.093,1.808,0.866,-0.030,0.943,-0.376,1.434,3.479,-1.129,60.000,229382.000,1.000
-8.455,5.577,-0.954,-9.045,-4.364,-3.151,-7.399,-2.908,-0.031,0.940,-0.378,1.434,3.479,-1.129,60.000,229383.000,1.000
-7.411,2.255,-3.411,-8.966,-4.459,-3.948,-6.597,-5.278,-0.031,0.941,-0.381,1.221,3.479,-1.160,60.000,229384.000,1.000
0.767,-6.475,-1.857,2.293,3.437,1.554,4.985,-2.362,-0.030,0.941,-0.377,1.312,3.540,-1.160,60.000,229385.000,1.000
7.971,-5.508,4.888,11.779,10.805,8.444,13.265,3.497,-0.029,0.941,-0.378,1.099,3.387,-1.160,60.000,229386.000,1.000
6.921,5.953,10.040,8.714,9.130,9.121,8.194,6.299,-0.028,0.940,-0.379,1.068,3.448,-1.099,60.000,229387.000,1.000
0.552,12.736,7.553,-1.343,1.096,3.236,-2.827,3.880,-0.029,0.939,-0.376,1.160,3.418,-1.007,60.000,229388.000,1.000
-2.197,4.737,0.419,-4.423,-3.116,-1.796,-5.145,0.526,-0.029,0.937,-0.379,1.068,3.418,-1.099,60.000,229389.000,1.000
1.542,-8.561,-3.064,2.694,0.562,-0.564,3.323,1.017,-0.028,0.938,-0.375,1.007,3.418,-1.007,60.000,229390.000,1.000
4.862,-10.738,-0.403,8.218,4.846,3.236,9.531,4.008,-0.029,0.937,-0.373,0.854,3.387,-0.885,60.000,229391.000,1.000
0.909,-0.801,2.019,1.960,1.475,2.182,3.526,4.022,-0.030,0.937,-0.374,0.946,3.448,-0.793,60.000,229392.000,1.000
-7.190,5.813,-1.698,-10.072,-7.006,-4.256,-7.565,-0.649,-0.031,0.939,-0.373,1.007,3.448,-0.824,60.000,229393.000,1.000
-10.135,-1.172,-8.350,-13.463,-10.520,-8.674,-9.247,-5.269,-0.029,0.937,-0.374,1.007,3.387,-0.763,60.000,229394.000,1.000
-4.789,-12.467,-9.698,-4.865,-5.218,-5.703,0.406,-4.782,-0.031,0.938,-0.374,0.885,3.296,-0.549,60.000,229395.000,1.000
2.029,-11.818,-3.501,3.811,1.503,0.912,8.336,-0.238,-0.030,0.937,-0.373,0.824,3.296,-0.397,60.000,229396.000,1.000
3.242,1.636,3.553,2.029,1.486,3.732,4.818,3.039,-0.031,0.937,-0.377,0.885,3.265,-0.397,60.000,229397.000,1.000
0.972,11.914,4.778,-5.131,-3.046,1.727,-3.183,2.682,-0.031,0.935,-0.375,0.793,3.326,-0.305,60.000,229398.000,1.000
2.697,7.661,1.967,-4.767,-3.111,1.040,-2.129,1.904,-0.032,0.935,-0.374,0.702,3.174,-0.305,60.000,229399.000,1.000
9.842,-2.823,2.070,5.187,3.945,5.688,8.751,4.243,-0.029,0.935,-0.375,0.549,3.174,-0.275,60.000,229400.000,1.000
15.052,-3.485,7.043,12.616,10.301,11.427,15.959,8.138,-0.031,0.936,-0.375,0.549,3.235,-0.305,60.000,229401.000,1.000
12.150,7.225,10.985,7.864,8.227,11.351,10.199,8.929,-0.028,0.936,-0.373,0.488,3.113,-0.153,60.000,229402.000,1.000
4.910,14.486,8.456,-2.811,0.724,5.424,-0.783,5.332,-0.029,0.936,-0.375,0.458,3.113,-0.092,60.000,229403.000,1.000
2.284,7.950,2.308,-5.678,-2.513,0.732,-2.738,1.325,-0.029,0.935,-0.373,0.366,2.991,-0.031,60.000,229404.000,1.000
6.488,-3.676,0.064,1.764,1.742,2.049,5.700,0.924,-0.029,0.935,-0.375,0.458,2.960,-0.122,60.000,229405.000,1.000
10.335,-4.513,3.789,7.671,6.118,5.707,11.493,2.978,-0.028,0.938,-0.374,0.519,2.899,-0.092,60.000,229406.000,1.000
7.432,6.589,7.452,2.549,3.168,5.113,5.526,3.060,-0.027,0.937,-0.370,0.427,2.838,-0.122,60.000,229407.000,1.000
1.175,14.492,5.407,-7.366,-4.032,0.214,-4.609,-0.119,-0.025,0.936,-0.370,0.305,2.899,-0.122,60.000,229408.000,1.000
0.179,8.743,0.332,-8.548,-5.885,-2.242,-5.017,-2.615,-0.025,0.936,-0.370,0.397,2.808,-0.153,60.000,229409.000,1.000
6.330,-2.010,-0.458,1.104,0.474,1.842,5.152,-0.627,-0.024,0.936,-0.371,0.336,2.808,-0.183,60.000,229410.000,1.000
11.867,-2.201,4.663,9.041,6.877,7.758,12.134,3.950,-0.023,0.935,-0.372,0.397,2.777,-0.244,60.000,229411.000,1.000
9.692,8.826,9.061,5.003,4.978,7.896,6.195,5.688,-0.023,0.935,-0.373,0.366,2.869,-0.275,60.000,229412.000,1.000
2.979,15.776,6.851,-5.003,-2.441,1.922,-5.027,2.840,-0.027,0.935,-0.374,0.488,2.930,-0.214,60.000,229413.000,1.000
0.951,8.729,1.212,-6.860,-5.166,-2.622,-6.800,-0.206,-0.027,0.934,-0.373,0.488,2.899,-0.366,60.000,229414.000,1.000
6.509,-2.767,0.359,2.470,0.710,-0.269,2.798,1.222,-0.025,0.937,-0.372,0.549,2.930,-0.366,60.000,229415.000,1.000
12.535,-2.599,6.440,10.987,7.705,5.283,10.537,5.777,-0.024,0.937,-0.372,0.519,2.869,-0.458,60.000,229416.000,1.000
11.841,9.776,12.615,8.286,7.453,6.594,6.416,7.967,-0.025,0.937,-0.372,0.641,2.808,-0.458,60.000,229417.000,1.000
6.973,18.612,12.417,-0.206,2.270,2.863,-2.597,5.664,-0.023,0.937,-0.370,0.610,2.869,-0.519,60.000,229418.000,1.000
6.296,13.438,8.382,-1.012,1.721,0.842,-2.422,2.925,-0.023,0.937,-0.369,0.641,2.930,-0.519,60.000,229419.000,1.000
11.997,3.178,8.161,8.460,9.048,5.165,8.415,4.264,-0.023,0.936,-0.371,0.641,2.960,-0.519,60.000,229420.000,1.000
16.965,3.583,13.804,16.252,16.495,11.735,16.675,8.407,-0.025,0.936,-0.372,0.671,3.052,-0.580,60.000,229421.000,1.000
14.845,15.401,19.006,12.509,15.997,13.346,12.763,10.216,-0.024,0.936,-0.370,0.702,3.082,-0.641,60.000,229422.000,1.000
9.024,23.243,17.830,3.148,10.193,9.513,3.866,7.857,-0.023,0.937,-0.371,0.793,3.082,-0.610,60.000,229423.000,1.000
7.977,16.655,12.756,1.501,8.508,6.882,3.661,5.159,-0.023,0.937,-0.371,0.854,3.113,-0.702,60.000,229424.000,1.000
13.423,4.396,11.066,9.632,13.844,9.751,12.986,6.056,-0.023,0.934,-0.370,0.824,3.113,-0.610,60.000,229425.000,1.000
17.782,2.263,14.663,15.374,18.404,13.927,18.398,9.021,-0.023,0.938,-0.371,0.916,3.113,-0.732,60.000,229426.000,1.000
14.589,11.355,17.489,9.277,14.509,12.540,10.762,9.269,-0.026,0.937,-0.373,0.946,3.082,-0.824,60.000,229427.000,1.000
7.474,16.793,14.068,-2.053,5.382,5.675,-1.939,5.560,-0.026,0.935,-0.374,0.946,3.052,-0.885,60.000,229428.000,1.000
5.313,8.609,7.279,-4.774,0.932,0.440,-5.361,1.995,-0.029,0.934,-0.372,1.160,3.082,-0.854,60.000,229429.000,1.000
10.231,-4.009,4.627,3.372,4.424,1.478,1.784,2.317,-0.028,0.934,-0.374,1.190,3.082,-0.793,60.000,229430.000,1.000
14.866,-5.030,8.059,10.131,8.346,4.945,6.420,4.715,-0.030,0.936,-0.373,1.282,3.143,-0.885,60.000,229431.000,1.000
12.423,6.215,11.196,5.533,4.904,3.940,-0.586,4.205,-0.030,0.937,-0.370,1.404,3.082,-0.824,60.000,229432.000,1.000
5.706,13.766,7.914,-4.677,-3.334,-2.077,-11.825,-0.613,-0.028,0.935,-0.374,1.526,3.021,-0.732,60.000,229433.000,1.000
3.054,6.791,0.716,-7.193,-7.082,-6.592,-13.602,-5.474,-0.029,0.937,-0.373,1.556,2.930,-0.793,60.000,229434.000,1.000
6.869,-5.597,-2.615,0.454,-3.170,-5.042,-4.876,-5.946,-0.029,0.938,-0.372,1.648,2.960,-0.824,60.000,229435.000,1.000
10.518,-6.988,0.445,6.653,1.173,-1.097,1.280,-3.160,-0.029,0.938,-0.372,1.678,2.960,-0.732,60.000,229436.000,1.000
7.785,3.713,3.914,2.014,-1.507,-1.482,-4.277,-2.056,-0.028,0.935,-0.372,1.740,2.899,-0.702,60.000,229437.000,1.000
1.659,10.897,1.724,-7.472,-8.460,-6.606,-14.193,-4.616,-0.031,0.933,-0.374,1.740,2.777,-0.641,60.000,229438.000,1.000
0.286,3.980,-3.781,-8.567,-10.452,-9.941,-14.786,-7.175,-0.029,0.934,-0.372,1.862,2.808,-0.671,60.000,229439.000,1.000
5.688,-7.824,-5.054,0.954,-4.541,-7.046,-4.965,-5.593,-0.029,0.933,-0.370,1.923,2.838,-0.671,60.000,229440.000,1.000
10.850,-8.250,0.101,9.035,1.685,-1.828,2.149,-1.288,-0.028,0.933,-0.375,2.014,2.808,-0.549,60.000,229441.000,1.000
9.349,3.547,5.393,5.779,0.475,-1.176,-2.726,0.476,-0.030,0.933,-0.375,2.014,2.747,-0.488,60.000,229442.000,1.000
4.273,11.969,4.785,-2.983,-5.298,-5.263,-12.170,-2.166,-0.031,0.933,-0.375,2.075,2.808,-0.427,60.000,229443.000,1.000
3.931,6.628,0.849,-3.812,-5.999,-7.106,-12.275,-5.038,-0.028,0.932,-0.376,2.075,2.686,-0.214,60.000,229444.000,1.000
10.165,-3.425,1.023,5.684,1.376,-2.204,-1.929,-3.587,-0.025,0.930,-0.376,2.228,2.625,-0.214,60.000,229445.000,1.000
15.513,-2.502,7.004,13.468,8.781,4.999,5.530,0.959,-0.025,0.929,-0.376,2.319,2.747,-0.244,60.000,229446.000,1.000
13.447,9.890,12.232,9.766,8.009,7.006,0.740,3.467,-0.024,0.929,-0.375,2.350,2.625,-0.275,60.000,229447.000,1.000
7.689,18.518,11.122,0.841,2.035,3.531,-8.548,2.193,-0.024,0.931,-0.374,2.441,2.625,-0.305,60.000,229448.000,1.000
7.410,13.572,6.962,0.534,0.966,1.799,-8.018,1.183,-0.026,0.934,-0.375,2.472,2.686,-0.275,60.000,229449.000,1.000
14.551,3.989,7.251,10.919,7.943,6.280,3.292,4.283,-0.028,0.936,-0.375,2.472,2.686,-0.214,60.000,229450.000,1.000
20.838,4.637,13.004,19.012,14.583,12.213,11.343,9.238,-0.029,0.936,-0.376,2.472,2.563,-0.275,60.000,229451.000,1.000
18.727,15.226,16.917,14.255,12.292,11.918,6.108,10.292,-0.027,0.937,-0.375,2.380,2.533,-0.366,60.000,229452.000,1.000
11.136,20.110,12.919,2.607,3.708,5.075,-5.097,5.718,-0.027,0.938,-0.379,2.197,2.502,-0.458,60.000,229453.000,1.000
6.932,9.629,4.284,-1.958,-1.244,-0.983,-8.057,0.056,-0.026,0.938,-0.379,2.136,2.441,-0.427,60.000,229454.000,1.000
8.926,-6.061,-0.497,3.588,1.197,-0.974,-1.040,-1.754,-0.026,0.938,-0.375,2.136,2.411,-0.488,60.000,229455.000,1.000
10.762,-10.109,1.377,7.903,4.118,1.831,3.544,-0.400,-0.025,0.941,-0.375,2.075,2.380,-0.732,60.000,229456.000,1.000
6.491,-1.391,3.895,1.660,0.150,0.811,-2.985,-0.566,-0.027,0.939,-0.378,2.075,2.350,-0.763,60.000,229457.000,1.000
-0.661,4.546,1.025,-9.116,-7.917,-4.451,-13.119,-4.118,-0.027,0.937,-0.377,1.892,2.380,-0.732,60.000,229458.000,1.000
-2.526,-2.768,-4.819,-11.189,-10.824,-7.517,-13.407,-7.435,-0.024,0.939,-0.377,1.862,2.411,-0.732,60.000,229459.000,1.000
2.652,-14.309,-6.296,-2.452,-5.718,-4.233,-3.267,-6.550,-0.026,0.941,-0.380,1.740,2.441,-0.732,60.000,229460.000,1.000
7.599,-14.276,-1.585,5.009,-0.282,1.201,3.834,-2.884,-0.026,0.939,-0.377,1.678,2.502,-0.763,60.000,229461.000,1.000
5.832,-2.196,2.851,1.447,-2.241,1.817,-1.280,-1.458,-0.025,0.939,-0.378,1.648,2.502,-0.671,60.000,229462.000,1.000
0.271,6.095,0.966,-7.345,-8.825,-2.681,-10.995,-4.067,-0.024,0.937,-0.380,1.617,2.441,-0.824,60.000,229463.000,1.000
-1.219,-0.024,-4.766,-8.425,-10.801,-5.735,-11.591,-6.907,-0.022,0.938,-0.382,1.526,2.625,-0.793,60.000,229464.000,1.000
3.001,-11.505,-6.904,0.092,-5.407,-3.149,-2.286,-5.927,-0.023,0.937,-0.381,1.373,2.625,-0.641,60.000,229465.000,1.000
6.027,-12.228,-3.299,6.286,-0.241,1.078,3.724,-2.511,-0.023,0.938,-0.380,1.251,2.563,-0.580,60.000,229466.000,1.000
2.146,-1.275,0.072,0.957,-2.751,0.318,-2.374,-1.603,-0.025,0.939,-0.382,1.251,2.777,-0.519,60.000,229467.000,1.000
-4.860,5.931,-2.430,-9.450,-9.888,-5.416,-12.713,-4.872,-0.027,0.941,-0.380,1.312,2.808,-0.488,60.000,229468.000,1.000
-6.451,-0.914,-8.102,-11.445,-12.229,-9.303,-13.542,-8.369,-0.028,0.940,-0.381,1.251,2.808,-0.549,60.000,229469.000,1.000
-0.875,-12.692,-9.584,-2.951,-6.971,-6.990,-4.240,-7.974,-0.029,0.940,-0.383,1.099,2.777,-0.397,60.000,229470.000,1.000
4.289,-13.598,-5.207,3.797,-1.882,-2.601,1.698,-5.151,-0.027,0.939,-0.382,1.099,2.838,-0.458,60.000,229471.000,1.000
2.388,-3.013,-1.429,-0.921,-4.552,-2.972,-4.708,-4.880,-0.027,0.939,-0.380,0.977,2.777,-0.488,60.000,229472.000,1.000
-3.132,4.007,-3.697,-10.769,-11.591,-7.865,-15.228,-8.497,-0.028,0.939,-0.381,0.885,2.716,-0.397,60.000,229473.000,1.000
-3.409,-1.962,-8.538,-11.921,-12.916,-9.953,-15.398,-11.467,-0.027,0.937,-0.382,0.824,2.808,-0.336,60.000,229474.000,1.000
3.687,-11.310,-8.003,-1.967,-5.417,-4.799,-4.170,-9.264,-0.027,0.938,-0.384,0.793,2.747,-0.305,60.000,229475.000,1.000
10.634,-8.633,-0.483,6.913,2.788,2.902,4.771,-3.426,-0.027,0.936,-0.383,0.732,2.808,-0.275,60.000,229476.000,1.000
10.254,5.414,6.661,4.519,3.097,5.240,1.521,0.199,-0.027,0.938,-0.382,0.732,2.747,-0.214,60.000,229477.000,1.000
4.877,14.054,6.365,-3.940,-2.578,1.140,-7.186,-1.253,-0.028,0.936,-0.381,0.641,2.808,-0.275,60.000,229478.000,1.000
2.432,6.683,0.696,-5.730,-5.257,-2.888,-8.083,-4.447,-0.028,0.935,-0.383,0.641,2.716,-0.214,60.000,229479.000,1.000
5.068,-6.940,-2.592,1.374,-1.713,-2.034,-0.145,-4.905,-0.030,0.935,-0.381,0.641,2.777,-0.183,60.000,229480.000,1.000
6.394,-9.939,-0.635,6.160,1.387,0.599,4.241,-3.014,-0.029,0.935,-0.382,0.580,2.747,-0.214,60.000,229481.000,1.000
1.214,-0.712,1.454,0.211,-2.345,-0.706,-2.741,-2.698,-0.026,0.936,-0.380,0.458,2.747,-0.305,60.000,229482.000,1.000
-6.229,5.952,-1.302,-9.638,-9.199,-5.401,-12.651,-5.181,-0.028,0.936,-0.377,0.519,2.777,-0.336,60.000,229483.000,1.000
-7.382,0.040,-6.166,-10.274,-9.936,-6.914,-11.955,-6.890,-0.026,0.936,-0.376,0.519,2.686,-0.305,60.000,229484.000,1.000
-1.012,-9.727,-6.318,-0.471,-2.561,-1.811,-0.732,-4.532,-0.027,0.936,-0.376,0.580,2.655,-0.244,60.000,229485.000,1.000
4.758,-8.466,-0.655,6.992,4.436,4.834,7.026,-0.141,-0.026,0.935,-0.375,0.519,2.625,-0.366,60.000,229486.000,1.000
3.102,3.532,4.127,2.530,3.166,5.644,2.271,1.231,-0.025,0.936,-0.379,0.549,2.625,-0.427,60.000,229487.000,1.000
-2.594,10.670,2.373,-7.266,-3.186,0.614,-6.825,-1.752,-0.024,0.935,-0.380,0.671,2.563,-0.427,60.000,229488.000,1.000
-3.733,3.451,-2.907,-8.781,-4.934,-3.004,-6.162,-4.832,-0.024,0.934,-0.375,0.641,2.533,-0.519,60.000,229489.000,1.000
1.497,-8.270,-4.273,-0.145,0.682,-0.629,4.769,-3.909,-0.023,0.934,-0.374,0.641,2.563,-0.427,60.000,229490.000,1.000
5.679,-8.641,-0.158,6.232,5.704,3.562,12.019,-0.618,-0.023,0.933,-0.375,0.610,2.563,-0.458,60.000,229491.000,1.000
2.545,2.509,3.001,0.838,2.563,2.766,6.238,-0.024,-0.023,0.932,-0.374,0.549,2.655,-0.458,60.000,229492.000,1.000
-4.217,9.547,-0.217,-9.775,-5.294,-2.714,-4.608,-3.605,-0.025,0.933,-0.376,0.610,2.594,-0.488,60.000,229493.000,1.000
-5.964,2.567,-6.536,-12.016,-7.969,-5.686,-6.309,-7.218,-0.025,0.936,-0.376,0.549,2.655,-0.580,60.000,229494.000,1.000
-0.982,-9.018,-8.294,-3.975,-2.585,-1.920,2.150,-6.778,-0.026,0.935,-0.376,0.549,2.655,-0.580,60.000,229495.000,1.000
3.185,-9.542,-3.848,2.057,2.945,3.984,7.629,-3.749,-0.024,0.933,-0.374,0.427,2.686,-0.549,60.000,229496.000,1.000
0.106,1.196,0.175,-3.332,0.893,4.720,1.394,-2.968,-0.024,0.933,-0.376,0.549,2.686,-0.671,60.000,229497.000,1.000
-6.711,7.628,-2.033,-13.564,-5.719,0.012,-8.622,-5.818,-0.024,0.934,-0.375,0.732,2.655,-0.580,60.000,229498.000,1.000
-8.542,0.063,-7.434,-14.952,-7.369,-3.205,-8.734,-8.137,-0.022,0.935,-0.373,0.702,2.655,-0.702,60.000,229499.000,1.000
-3.223,-11.637,-8.260,-5.423,-1.208,-0.338,1.513,-5.902,-0.022,0.934,-0.375,0.671,2.777,-0.702,60.000,229500.000,1.000
2.192,-11.402,-2.635,2.726,5.046,4.751,8.614,-0.913,-0.021,0.935,-0.375,0.641,2.716,-0.702,60.000,229501.000,1.000
1.415,1.039,2.929,-0.178,3.837,5.365,3.661,1.458,-0.023,0.936,-0.375,0.702,2.777,-0.732,60.000,229502.000,1.000
-2.479,9.777,2.402,-8.082,-1.884,1.326,-5.570,-0.653,-0.023,0.937,-0.373,0.763,2.838,-0.641,60.000,229503.000,1.000
-1.753,4.444,-1.780,-8.000,-2.961,-0.926,-5.610,-3.341,-0.024,0.937,-0.375,0.732,2.777,-0.671,60.000,229504.000,1.000
4.744,-5.774,-2.396,1.752,3.181,2.591,4.032,-2.338,-0.023,0.937,-0.377,0.732,2.808,-0.702,60.000,229505.000,1.000
9.445,-5.207,2.318,9.058,8.898,7.722,10.256,1.268,-0.025,0.936,-0.376,0.671,2.808,-0.610,60.000,229506.000,1.000
6.079,6.232,5.991,4.578,6.761,7.727,4.533,2.630,-0.024,0.937,-0.378,0.641,2.869,-0.702,60.000,229507.000,1.000
-1.731,12.773,2.915,-5.370,-0.183,2.623,-5.155,-0.040,-0.024,0.938,-0.376,0.610,2.777,-0.671,60.000,229508.000,1.000
-5.195,4.704,-3.897,-7.464,-2.565,-0.690,-5.201,-2.963,-0.024,0.938,-0.378,0.519,2.808,-0.732,60.000,229509.000,1.000
-2.137,-7.962,-6.698,0.204,2.298,2.057,4.724,-2.192,-0.025,0.937,-0.378,0.519,2.930,-0.732,60.000,229510.000,1.000
0.533,-8.938,-3.437,5.616,6.739,6.621,11.129,0.821,-0.024,0.940,-0.377,0.549,2.930,-0.610,60.000,229511.000,1.000
-2.988,2.306,-0.203,-0.245,3.582,6.245,5.355,1.335,-0.024,0.938,-0.375,0.519,2.869,-0.610,60.000,229512.000,1.000
-8.928,10.112,-2.471,-10.616,-3.688,1.051,-4.528,-2.004,-0.026,0.938,-0.377,0.641,2.838,-0.641,60.000,229513.000,1.000
-9.095,4.182,-7.396,-12.124,-5.617,-2.196,-5.037,-5.228,-0.027,0.937,-0.379,0.610,2.899,-0.671,60.000,229514.000,1.000
-2.562,-6.676,-7.903,-3.284,0.051,0.396,3.884,-4.541,-0.025,0.938,-0.380,0.671,2.930,-0.763,60.000,229515.000,1.000
2.506,-7.356,-2.819,3.323,5.005,4.269,8.639,-1.619,-0.025,0.939,-0.379,0.488,2.869,-0.641,60.000,229516.000,1.000
-0.257,2.306,1.211,-1.600,1.676,2.646,0.851,-1.254,-0.026,0.938,-0.377,0.458,2.899,-0.610,60.000,229517.000,1.000
-6.758,7.403,-1.207,-11.176,-6.302,-3.982,-10.746,-4.534,-0.024,0.939,-0.375,0.458,2.808,-0.610,60.000,229518.000,1.000
-8.044,-1.052,-6.774,-11.822,-9.000,-8.319,-11.988,-7.102,-0.026,0.940,-0.376,0.305,2.777,-0.732,60.000,229519.000,1.000
-2.439,-13.171,-7.959,-1.993,-3.710,-6.131,-2.537,-5.000,-0.026,0.939,-0.374,0.275,2.808,-0.732,60.000,229520.000,1.000
2.400,-13.448,-3.252,5.698,1.525,-1.947,3.826,-0.169,-0.025,0.939,-0.374,0.336,2.838,-0.610,60.000,229521.000,1.000
0.191,-2.058,0.875,1.865,-0.830,-2.697,-1.686,2.048,-0.027,0.939,-0.377,0.336,2.808,-0.610,60.000,229522.000,1.000
-5.214,5.463,-0.896,-6.668,-7.224,-7.903,-10.605,0.224,-0.027,0.941,-0.373,0.305,2.899,-0.641,60.000,229523.000,1.000
-5.126,-0.299,-5.249,-6.290,-7.826,-10.111,-8.867,-1.243,-0.026,0.938,-0.374,0.244,2.869,-0.610,60.000,229524.000,1.000
1.764,-9.857,-4.993,4.301,-0.376,-5.288,3.402,1.454,-0.028,0.938,-0.374,0.183,2.808,-0.549,60.000,229525.000,1.000
7.266,-8.362,0.613,11.861,6.239,1.289,11.494,5.837,-0.028,0.938,-0.376,0.122,2.869,-0.549,60.000,229526.000,1.000
4.735,3.500,4.484,6.549,3.885,2.020,5.920,6.261,-0.027,0.936,-0.377,0.092,2.777,-0.427,60.000,229527.000,1.000
-1.814,10.307,1.367,-4.576,-3.748,-2.668,-4.755,1.642,-0.026,0.936,-0.377,0.092,2.899,-0.458,60.000,229528.000,1.000
-3.078,3.306,-4.775,-7.112,-6.108,-4.886,-5.643,-2.785,-0.026,0.937,-0.375,0.092,2.747,-0.366,60.000,229529.000,1.000
2.745,-7.418,-6.098,1.033,-0.182,-0.191,4.152,-2.334,-0.025,0.938,-0.375,0.061,2.808,-0.427,60.000,229530.000,1.000
7.344,-6.935,-1.652,6.973,5.445,6.162,10.544,0.958,-0.024,0.936,-0.372,-0.031,2.777,-0.458,60.000,229531.000,1.000
3.647,3.797,1.376,0.863,2.469,6.273,4.134,1.376,-0.027,0.938,-0.372,-0.061,2.594,-0.397,60.000,229532.000,1.000
-4.586,9.041,-2.444,-10.508,-5.854,0.133,-6.877,-2.578,-0.025,0.938,-0.376,0.000,2.625,-0.366,60.000,229533.000,1.000
-7.949,-0.049,-9.268,-13.112,-9.350,-4.550,-8.131,-6.249,-0.025,0.936,-0.373,0.061,2.686,-0.458,60.000,229534.000,1.000
-3.892,-12.791,-10.927,-4.759,-4.667,-2.599,1.349,-5.098,-0.026,0.934,-0.374,0.000,2.686,-0.519,60.000,229535.000,1.000
0.452,-13.109,-5.746,2.349,0.692,2.194,8.362,-0.587,-0.025,0.933,-0.372,0.031,2.594,-0.427,60.000,229536.000,1.000
-1.418,-1.204,-0.594,-1.204,-0.736,2.959,4.200,2.152,-0.026,0.933,-0.373,0.061,2.594,-0.397,60.000,229537.000,1.000
-6.373,7.031,-1.394,-9.017,-5.798,-0.373,-3.197,1.462,-0.027,0.934,-0.372,0.183,2.533,-0.397,60.000,229538.000,1.000
-6.370,1.875,-5.197,-8.005,-5.232,-1.083,-0.495,1.195,-0.025,0.933,-0.373,0.183,2.594,-0.427,60.000,229539.000,1.000
-0.125,-7.260,-4.701,3.030,3.004,4.498,11.981,4.865,-0.025,0.932,-0.373,0.336,2.686,-0.427,60.000,229540.000,1.000
4.584,-5.635,1.076,11.145,10.123,11.102,19.871,10.077,-0.025,0.932,-0.371,0.336,2.747,-0.427,60.000,229541.000,1.000
1.170,5.464,4.759,6.479,7.743,10.866,13.744,11.034,-0.025,0.933,-0.371,0.397,2.625,-0.366,60.000,229542.000,1.000
-7.066,9.694,0.225,-4.665,-1.287,3.417,1.421,5.993,-0.024,0.932,-0.372,0.519,2.625,-0.427,60.000,229543.000,1.000
-11.573,-1.974,-9.089,-8.679,-7.058,-3.862,-3.014,-0.352,-0.025,0.935,-0.370,0.610,2.625,-0.397,60.000,229544.000,1.000
-9.943,-18.132,-14.426,-3.022,-5.755,-5.453,1.900,-2.743,-0.024,0.934,-0.372,0.671,2.655,-0.458,60.000,229545.000,1.000
-8.318,-21.339,-12.639,1.251,-3.665,-4.010,4.287,-1.520,-0.022,0.934,-0.373,0.763,2.625,-0.488,60.000,229546.000,1.000
-11.710,-10.610,-9.074,-4.023,-6.924,-5.106,-3.072,-0.896,-0.025,0.936,-0.373,0.763,2.655,-0.458,60.000,229547.000,1.000
-16.197,-1.605,-9.117,-11.993,-11.872,-8.380,-11.572,-2.306,-0.026,0.936,-0.373,0.763,2.594,-0.397,60.000,229548.000,1.000
-14.346,-4.901,-10.672,-10.279,-9.942,-7.910,-8.435,-2.447,-0.025,0.934,-0.371,0.793,2.563,-0.458,60.000,229549.000,1.000
-6.283,-12.253,-7.934,1.140,-0.327,-1.254,4.902,1.397,-0.025,0.937,-0.371,0.885,2.502,-0.488,60.000,229550.000,1.000
-0.559,-9.260,-0.665,8.916,7.649,5.902,13.587,6.616,-0.025,0.939,-0.371,0.885,2.563,-0.519,60.000,229551.000,1.000
-3.135,3.651,4.409,4.078,6.295,6.534,8.802,8.104,-0.025,0.938,-0.372,1.007,2.533,-0.427,60.000,229552.000,1.000
-9.448,11.282,2.366,-5.787,-0.437,1.466,-0.672,4.948,-0.026,0.937,-0.370,1.007,2.625,-0.519,60.000,229553.000,1.000
-10.457,4.693,-3.034,-6.738,-2.387,-1.626,-0.638,1.787,-0.024,0.936,-0.373,1.190,2.625,-0.488,60.000,229554.000,1.000
-4.675,-6.190,-4.124,2.694,3.220,1.670,9.229,2.777,-0.027,0.937,-0.372,1.190,2.472,-0.397,60.000,229555.000,1.000
0.090,-6.132,0.504,9.788,8.464,6.885,15.346,6.224,-0.023,0.937,-0.370,1.068,2.563,-0.488,60.000,229556.000,1.000
-2.273,4.515,4.412,5.347,6.115,7.157,9.347,7.222,-0.024,0.937,-0.371,1.099,2.686,-0.488,60.000,229557.000,1.000
-7.552,10.598,2.524,-3.528,-0.086,2.856,-0.153,4.627,-0.024,0.937,-0.368,1.129,2.716,-0.488,60.000,229558.000,1.000
-6.844,3.537,-1.581,-3.179,-0.479,1.065,0.593,2.738,-0.022,0.937,-0.369,1.160,2.655,-0.671,60.000,229559.000,1.000
1.275,-6.314,-0.417,7.817,7.194,5.782,11.478,5.399,-0.023,0.936,-0.373,1.129,2.625,-0.580,60.000,229560.000,1.000
8.756,-3.671,7.058,16.739,14.620,12.413,18.731,10.705,-0.022,0.937,-0.374,1.160,2.655,-0.641,60.000,229561.000,1.000
8.825,10.355,13.627,14.102,14.147,13.989,13.848,13.439,-0.021,0.936,-0.371,1.221,2.686,-0.641,60.000,229562.000,1.000
4.495,18.970,12.953,6.068,8.749,10.316,4.903,11.690,-0.021,0.936,-0.374,1.221,2.747,-0.641,60.000,229563.000,1.000
3.419,11.844,7.367,5.053,7.179,7.580,4.818,8.813,-0.023,0.935,-0.374,1.343,2.655,-0.763,60.000,229564.000,1.000
6.701,-1.356,3.996,11.979,11.303,9.225,13.088,8.360,-0.024,0.934,-0.375,1.312,2.625,-0.732,60.000,229565.000,1.000
7.270,-4.586,4.740,14.861,13.259,10.849,16.259,8.990,-0.025,0.935,-0.375,1.343,2.747,-0.763,60.000,229566.000,1.000
0.096,2.730,4.040,5.753,6.513,6.447,6.680,6.468,-0.024,0.938,-0.373,1.465,2.716,-0.763,60.000,229567.000,1.000
-9.891,5.846,-2.460,-7.370,-4.342,-2.464,-6.245,0.198,-0.025,0.937,-0.376,1.404,2.655,-0.793,60.000,229568.000,1.000
-13.481,-3.760,-10.689,-10.577,-8.864,-7.789,-8.106,-4.993,-0.026,0.937,-0.374,1.282,2.655,-0.854,60.000,229569.000,1.000
-9.138,-15.730,-12.876,-2.538,-4.263,-5.085,1.358,-4.743,-0.027,0.938,-0.373,1.312,2.625,-0.854,60.000,229570.000,1.000
-4.740,-14.674,-7.792,3.986,1.395,0.904,8.407,-0.658,-0.026,0.936,-0.372,1.373,2.625,-0.763,60.000,229571.000,1.000
-6.534,-1.269,-2.250,-0.070,0.731,3.066,4.571,2.253,-0.026,0.936,-0.373,1.312,2.563,-0.824,60.000,229572.000,1.000
-10.761,8.380,-2.015,-7.767,-2.942,1.361,-1.925,2.320,-0.026,0.938,-0.374,1.343,2.563,-0.854,60.000,229573.000,1.000
-9.684,4.074,-4.789,-6.423,-1.112,1.810,1.532,2.656,-0.024,0.937,-0.373,1.282,2.594,-0.824,60.000,229574.000,1.000
-3.295,-5.559,-4.530,4.061,6.966,6.932,13.331,5.759,-0.025,0.938,-0.374,1.312,2.563,-0.977,60.000,229575.000,1.000
-0.162,-6.043,-0.740,10.411,12.164,11.261,18.888,9.134,-0.026,0.938,-0.375,1.251,2.533,-1.007,60.000,229576.000,1.000
-6.019,2.294,0.388,3.925,7.412,8.318,10.248,8.198,-0.027,0.937,-0.374,1.312,2.502,-0.885,60.000,229577.000,1.000
-15.621,4.845,-5.215,-7.469,-2.555,-0.323,-2.793,2.711,-0.024,0.937,-0.373,1.160,2.533,-0.946,60.000,229578.000,1.000
-19.168,-6.274,-12.988,-9.694,-7.063,-6.439,-5.470,-2.204,-0.025,0.938,-0.373,1.160,2.533,-0.916,60.000,229579.000,1.000
-14.843,-20.208,-15.043,-1.372,-3.316,-5.550,2.453,-2.322,-0.025,0.938,-0.376,1.251,2.411,-0.885,60.000,229580.000,1.000
-10.598,-21.497,-10.402,4.681,0.473,-2.448,6.955,0.340,-0.026,0.936,-0.377,1.221,2.472,-0.885,60.000,229581.000,1.000
-12.863,-10.982,-6.104,-0.674,-3.135,-4.245,-0.585,0.518,-0.026,0.938,-0.374,1.190,2.502,-0.916,60.000,229582.000,1.000
-17.737,-4.477,-7.558,-10.281,-10.321,-10.443,-11.401,-2.942,-0.027,0.937,-0.371,1.190,2.502,-0.854,60.000,229583.000,1.000
-16.596,-10.909,-11.233,-10.626,-11.234,-13.600,-11.435,-5.512,-0.028,0.937,-0.371,1.160,2.563,-0.824,60.000,229584.000,1.000
-8.105,-19.916,-9.510,-0.433,-3.523,-9.441,-0.618,-3.238,-0.028,0.938,-0.372,1.190,2.411,-0.763,60.000,229585.000,1.000
-0.049,-16.055,-1.058,7.768,4.501,-2.504,7.264,1.887,-0.027,0.935,-0.372,1.068,2.350,-0.641,60.000,229586.000,1.000
1.241,-0.272,7.219,4.985,5.165,0.102,3.568,4.603,-0.029,0.935,-0.375,1.068,2.289,-0.671,60.000,229587.000,1.000
-0.893,10.918,9.208,-2.090,1.514,-1.920,-3.749,3.315,-0.028,0.937,-0.375,1.099,2.258,-0.702,60.000,229588.000,1.000
1.186,7.496,7.261,-0.821,2.427,-2.285,-1.806,1.861,-0.027,0.937,-0.371,1.129,2.380,-0.702,60.000,229589.000,1.000
7.992,-1.104,8.029,9.243,9.643,2.478,8.707,3.744,-0.027,0.938,-0.373,1.038,2.319,-0.763,60.000,229590.000,1.000
11.545,0.164,12.549,15.183,14.887,7.662,14.030,6.916,-0.026,0.939,-0.374,1.099,2.289,-0.702,60.000,229591.000,1.000
6.342,10.845,14.703,8.464,11.368,6.827,6.448,6.580,-0.028,0.939,-0.373,0.977,2.319,-0.793,60.000,229592.000,1.000
-2.491,15.928,10.205,-2.908,3.682,1.188,-4.469,2.176,-0.027,0.939,-0.373,0.977,2.289,-0.732,60.000,229593.000,1.000
-5.340,7.350,3.431,-4.803,2.132,-1.374,-4.378,-1.289,-0.027,0.938,-0.371,1.038,2.319,-0.580,60.000,229594.000,1.000
-0.365,-3.976,2.305,4.198,9.036,3.349,6.530,0.404,-0.027,0.939,-0.374,0.977,2.258,-0.549,60.000,229595.000,1.000
4.695,-2.670,7.937,11.337,15.721,10.247,13.950,5.208,-0.027,0.939,-0.373,1.007,2.289,-0.610,60.000,229596.000,1.000
3.348,9.886,13.114,7.378,14.256,11.662,8.953,7.601,-0.026,0.939,-0.375,0.854,2.319,-0.580,60.000,229597.000,1.000
-1.199,16.930,11.714,-1.076,7.769,7.243,-0.324,5.760,-0.026,0.941,-0.373,0.946,2.319,-0.549,60.000,229598.000,1.000
-1.307,8.757,6.382,-1.372,5.467,3.652,-0.586,3.462,-0.025,0.940,-0.375,0.824,2.380,-0.641,60.000,229599.000,1.000
3.932,-4.219,4.393,7.285,9.699,5.079,8.068,4.523,-0.026,0.938,-0.377,0.793,2.350,-0.549,60.000,229600.000,1.000
7.244,-5.755,7.569,12.707,12.969,7.787,12.630,7.589,-0.025,0.939,-0.376,0.793,2.319,-0.549,60.000,229601.000,1.000
3.424,4.223,10.090,6.850,8.840,5.975,5.795,8.366,-0.026,0.939,-0.375,0.671,2.411,-0.549,60.000,229602.000,1.000
-2.858,10.323,7.235,-2.480,1.598,0.750,-3.170,6.121,-0.027,0.939,-0.375,0.610,2.502,-0.519,60.000,229603.000,1.000
-2.926,3.631,2.534,-1.910,0.903,-0.675,-0.723,5.061,-0.026,0.937,-0.376,0.549,2.502,-0.519,60.000,229604.000,1.000
3.829,-6.105,2.780,8.847,8.208,4.853,11.868,8.192,-0.026,0.938,-0.376,0.458,2.533,-0.397,60.000,229605.000,1.000
8.407,-4.890,7.811,15.814,13.786,11.000,19.129,12.247,-0.028,0.941,-0.373,0.519,2.472,-0.427,60.000,229606.000,1.000
3.705,4.946,9.671,9.122,8.986,9.335,11.386,11.161,-0.025,0.939,-0.375,0.458,2.533,-0.427,60.000,229607.000,1.000
-6.477,6.947,2.703,-4.112,-2.788,-0.205,-2.979,3.703,-0.025,0.939,-0.372,0.427,2.502,-0.336,60.000,229608.000,1.000
-12.899,-7.038,-8.896,-9.797,-11.039,-9.712,-9.464,-4.879,-0.024,0.940,-0.372,0.427,2.441,-0.397,60.000,229609.000,1.000
-12.911,-24.776,-16.128,-5.634,-11.855,-13.538,-6.659,-9.247,-0.025,0.940,-0.377,0.427,2.533,-0.366,60.000,229610.000,1.000
-12.633,-28.830,-16.064,-2.902,-11.586,-14.357,-6.401,-9.814,-0.023,0.939,-0.375,0.427,2.686,-0.427,60.000,229611.000,1.000
-16.968,-18.785,-14.224,-9.448,-16.224,-17.491,-15.477,-10.654,-0.024,0.936,-0.373,0.427,2.686,-0.275,60.000,229612.000,1.000
-21.922,-10.612,-15.921,-18.030,-22.010,-22.225,-24.991,-13.005,-0.025,0.936,-0.376,0.488,2.716,-0.183,60.000,229613.000,1.000
-20.100,-14.489,-18.852,-16.343,-20.625,-22.544,-22.479,-13.596,-0.024,0.936,-0.377,0.549,2.777,-0.275,60.000,229614.000,1.000
-11.720,-21.657,-17.088,-4.805,-11.670,-16.209,-9.961,-9.972,-0.023,0.935,-0.375,0.519,2.747,-0.336,60.000,229615.000,1.000
-5.390,-17.862,-10.428,2.985,-4.539,-9.076,-2.385,-4.943,-0.025,0.935,-0.373,0.519,2.777,-0.336,60.000,229616.000,1.000
-6.948,-4.093,-5.541,-1.648,-6.386,-7.956,-7.901,-3.435,-0.024,0.935,-0.371,0.519,2.716,-0.214,60.000,229617.000,1.000
-11.693,4.247,-7.081,-10.658,-12.599,-11.656,-17.023,-5.927,-0.025,0.933,-0.370,0.702,2.869,-0.336,60.000,229618.000,1.000
-10.800,-1.419,-11.074,-10.194,-12.987,-12.596,-15.685,-7.600,-0.026,0.932,-0.374,0.763,2.899,-0.336,60.000,229619.000,1.000
-3.208,-10.642,-9.942,0.647,-5.357,-6.983,-4.335,-4.624,-0.027,0.934,-0.374,0.793,2.869,-0.397,60.000,229620.000,1.000
3.103,-8.111,-2.689,8.752,1.799,0.114,2.967,0.693,-0.025,0.932,-0.373,0.885,2.808,-0.366,60.000,229621.000,1.000
2.107,5.236,3.655,4.951,1.006,1.666,-1.996,2.920,-0.023,0.931,-0.371,0.793,2.869,-0.427,60.000,229622.000,1.000
-1.986,13.517,3.503,-3.613,-4.096,-1.787,-10.337,0.744,-0.023,0.931,-0.370,0.916,2.838,-0.488,60.000,229623.000,1.000
-0.575,7.856,0.173,-3.565,-3.993,-3.000,-8.424,-1.381,-0.024,0.930,-0.371,1.007,2.808,-0.458,60.000,229624.000,1.000
7.422,-1.355,1.101,6.177,3.435,1.938,3.192,0.602,-0.023,0.929,-0.370,1.221,2.899,-0.488,60.000,229625.000,1.000
14.008,1.060,7.392,13.030,9.898,8.205,10.390,4.789,-0.022,0.929,-0.371,1.343,2.991,-0.549,60.000,229626.000,1.000
12.952,13.800,12.151,8.280,8.035,8.860,4.768,5.970,-0.021,0.930,-0.372,1.465,3.052,-0.549,60.000,229627.000,1.000
8.029,20.608,9.929,-0.822,1.499,4.326,-4.949,2.825,-0.022,0.931,-0.373,1.556,3.082,-0.519,60.000,229628.000,1.000
7.453,12.669,4.315,-1.122,-0.084,1.723,-5.020,-0.227,-0.024,0.933,-0.372,1.709,3.082,-0.702,60.000,229629.000,1.000
12.483,1.048,3.252,8.267,5.753,5.117,4.534,0.963,-0.022,0.931,-0.375,1.770,3.113,-0.732,60.000,229630.000,1.000
15.977,1.865,8.476,14.864,11.252,10.150,10.434,4.782,-0.024,0.932,-0.375,1.831,2.991,-0.702,60.000,229631.000,1.000
12.650,14.395,13.401,10.170,9.448,10.261,4.907,6.283,-0.024,0.933,-0.373,1.740,3.052,-0.732,60.000,229632.000,1.000
6.589,22.124,12.143,1.306,3.747,5.713,-3.555,3.940,-0.024,0.934,-0.374,1.923,3.052,-0.793,60.000,229633.000,1.000
5.507,15.159,7.153,0.807,2.753,2.933,-2.345,1.353,-0.025,0.935,-0.374,1.892,3.021,-0.854,60.000,229634.000,1.000
9.712,3.195,5.156,8.831,7.689,5.185,7.163,1.745,-0.023,0.936,-0.378,1.862,2.930,-0.946,60.000,229635.000,1.000
11.415,1.496,7.433,12.718,10.249,7.753,11.024,3.229,-0.022,0.935,-0.379,1.984,2.869,-0.916,60.000,229636.000,1.000
5.669,9.772,8.244,4.792,4.250,4.664,2.086,1.636,-0.023,0.938,-0.377,1.984,2.991,-1.099,60.000,229637.000,1.000
-2.134,13.305,3.583,-6.237,-5.021,-2.310,-9.414,-3.042,-0.025,0.939,-0.375,2.045,2.930,-1.129,60.000,229638.000,1.000
-2.877,4.440,-2.261,-6.381,-7.018,-5.173,-9.014,-5.751,-0.025,0.940,-0.373,2.014,2.899,-1.099,60.000,229639.000,1.000
4.183,-5.873,-1.928,4.833,0.295,-0.130,2.677,-2.730,-0.026,0.941,-0.374,1.923,2.899,-1.160,60.000,229640.000,1.000
10.308,-2.903,4.900,13.577,7.771,7.162,10.895,3.324,-0.027,0.941,-0.374,1.801,2.777,-1.221,60.000,229641.000,1.000
8.848,11.164,10.605,10.152,7.231,8.833,6.619,6.463,-0.027,0.942,-0.375,1.740,2.716,-1.312,60.000,229642.000,1.000
3.751,19.502,9.459,1.477,1.921,4.816,-1.834,4.881,-0.028,0.943,-0.373,1.648,2.808,-1.434,60.000,229643.000,1.000
3.525,13.069,4.866,0.749,1.182,2.178,-1.174,2.580,-0.027,0.941,-0.374,1.556,2.686,-1.434,60.000,229644.000,1.000
9.178,2.563,4.236,8.857,7.023,4.962,7.973,3.334,-0.026,0.941,-0.373,1.526,2.594,-1.465,60.000,229645.000,1.000
12.830,3.481,8.660,13.325,11.323,8.730,11.988,5.456,-0.028,0.939,-0.375,1.434,2.563,-1.465,60.000,229646.000,1.000
8.872,14.929,11.643,6.122,7.486,7.320,3.674,4.578,-0.027,0.940,-0.372,1.495,2.533,-1.373,60.000,229647.000,1.000
2.141,21.306,8.473,-4.556,0.144,2.073,-7.039,0.346,-0.026,0.939,-0.372,1.404,2.563,-1.343,60.000,229648.000,1.000
1.604,14.218,3.026,-5.116,-0.901,0.347,-6.311,-2.582,-0.028,0.938,-0.375,1.373,2.533,-1.312,60.000,229649.000,1.000
8.190,4.209,2.559,4.847,5.791,5.261,4.571,-0.754,-0.026,0.939,-0.375,1.434,2.411,-1.343,60.000,229650.000,1.000
13.531,6.021,7.618,11.868,11.022,10.932,10.701,3.178,-0.027,0.939,-0.375,1.404,2.472,-1.190,60.000,229651.000,1.000
11.296,17.788,11.014,6.803,7.196,9.949,3.610,3.725,-0.025,0.937,-0.378,1.373,2.533,-1.099,60.000,229652.000,1.000
5.607,23.223,7.489,-2.972,-1.539,3.137,-7.499,-0.224,-0.028,0.937,-0.376,1.251,2.563,-1.007,60.000,229653.000,1.000
4.990,13.861,0.804,-4.101,-5.121,-1.721,-8.673,-4.102,-0.026,0.936,-0.375,1.251,2.472,-0.977,60.000,229654.000,1.000
10.192,0.603,-1.632,3.994,-1.435,-0.555,-0.534,-4.134,-0.025,0.938,-0.376,1.221,2.563,-0.946,60.000,229655.000,1.000
12.888,-1.320,0.951,8.236,0.977,1.638,2.707,-2.541,-0.028,0.938,-0.376,1.251,2.563,-0.854,60.000,229656.000,1.000
7.190,6.928,1.797,0.222,-4.890,-1.890,-6.790,-4.252,-0.028,0.939,-0.373,1.160,2.625,-0.793,60.000,229657.000,1.000
-1.970,9.940,-3.631,-11.685,-14.356,-9.833,-19.224,-9.718,-0.029,0.938,-0.375,1.068,2.472,-0.702,60.000,229658.000,1.000
-5.117,0.011,-10.780,-13.334,-16.994,-14.099,-20.200,-13.792,-0.028,0.937,-0.374,1.160,2.502,-0.580,60.000,229659.000,1.000
-0.597,-11.557,-11.654,-3.819,-10.544,-10.470,-10.144,-12.373,-0.027,0.938,-0.375,1.007,2.533,-0.641,60.000,229660.000,1.000
3.923,-9.580,-5.330,3.690,-3.638,-4.031,-3.285,-7.693,-0.028,0.940,-0.371,0.916,2.502,-0.580,60.000,229661.000,1.000
2.620,4.205,1.028,0.367,-3.733,-2.024,-7.764,-4.972,-0.027,0.940,-0.373,0.824,2.472,-0.366,60.000,229662.000,1.000
-0.482,13.193,1.787,-6.353,-7.216,-4.294,-14.688,-5.356,-0.027,0.938,-0.374,0.732,2.533,-0.397,60.000,229663.000,1.000
2.182,7.998,-0.252,-3.854,-5.356,-4.457,-11.262,-4.981,-0.024,0.939,-0.372,0.702,2.594,-0.397,60.000,229664.000,1.000
10.124,-1.664,1.129,7.225,2.433,0.173,0.487,-1.244,-0.024,0.941,-0.374,0.671,2.472,-0.427,60.000,229665.000,1.000
14.339,-1.391,5.929,13.013,6.791,4.000,5.630,2.680,-0.026,0.941,-0.374,0.519,2.563,-0.275,60.000,229666.000,1.000
9.071,7.491,7.362,5.103,0.947,0.589,-3.441,1.636,-0.025,0.939,-0.371,0.336,2.472,-0.397,60.000,229667.000,1.000
-0.104,10.038,1.449,-7.675,-9.519,-7.964,-16.180,-4.359,-0.025,0.937,-0.371,0.305,2.472,-0.366,60.000,229668.000,1.000
-3.180,-0.752,-6.602,-10.770,-13.364,-12.922,-17.571,-9.501,-0.023,0.937,-0.371,0.275,2.411,-0.305,60.000,229669.000,1.000
1.370,-13.192,-8.596,-3.233,-8.164,-9.984,-7.945,-9.380,-0.022,0.935,-0.371,0.183,2.472,-0.336,60.000,229670.000,1.000
5.134,-12.345,-4.043,1.509,-3.037,-4.642,-1.946,-6.429,-0.024,0.934,-0.371,0.183,2.563,-0.427,60.000,229671.000,1.000
1.565,-0.495,-0.711,-5.600,-6.014,-4.549,-8.235,-6.310,-0.024,0.934,-0.373,0.183,2.716,-0.519,60.000,229672.000,1.000
-5.236,5.644,-4.224,-16.862,-13.460,-9.466,-18.005,-10.326,-0.023,0.934,-0.372,0.092,2.686,-0.549,60.000,229673.000,1.000
-6.496,-2.507,-10.680,-18.652,-15.717,-12.266,-17.780,-14.051,-0.022,0.934,-0.374,0.153,2.747,-0.549,60.000,229674.000,1.000
-0.861,-13.770,-12.072,-10.162,-10.659,-9.080,-8.316,-13.627,-0.022,0.934,-0.369,0.183,2.686,-0.702,60.000,229675.000,1.000
3.959,-12.706,-7.123,-4.264,-6.473,-4.621,-3.472,-11.033,-0.021,0.934,-0.372,0.214,2.899,-0.732,60.000,229676.000,1.000
1.907,-1.039,-2.878,-9.566,-10.071,-5.555,-10.845,-11.223,-0.023,0.934,-0.370,0.336,2.869,-0.793,60.000,229677.000,1.000
-3.183,4.703,-4.911,-18.480,-17.249,-11.080,-20.933,-15.032,-0.024,0.933,-0.370,0.214,2.991,-0.854,60.000,229678.000,1.000
-3.227,-3.994,-9.803,-17.860,-18.333,-13.909,-19.985,-17.737,-0.025,0.934,-0.370,0.305,2.991,-0.916,60.000,229679.000,1.000
2.328,-16.048,-10.353,-7.614,-11.780,-10.565,-9.091,-15.566,-0.024,0.934,-0.370,0.458,3.113,-0.977,60.000,229680.000,1.000
5.255,-16.304,-6.054,-1.346,-6.758,-6.573,-2.988,-11.122,-0.023,0.936,-0.372,0.610,3.174,-1.007,60.000,229681.000,1.000
-0.121,-6.453,-4.016,-7.852,-10.820,-9.071,-9.993,-10.055,-0.024,0.936,-0.370,0.580,3.143,-0.854,60.000,229682.000,1.000
-8.593,-2.352,-8.903,-18.909,-19.527,-16.890,-20.664,-13.424,-0.026,0.937,-0.369,0.519,3.235,-0.854,60.000,229683.000,1.000
-10.322,-11.390,-15.710,-20.065,-22.133,-21.596,-20.615,-16.017,-0.027,0.936,-0.368,0.580,3.204,-0.824,60.000,229684.000,1.000
-3.484,-21.522,-15.717,-9.832,-15.683,-18.295,-9.887,-13.118,-0.027,0.938,-0.374,0.732,3.204,-0.824,60.000,229685.000,1.000
3.592,-17.608,-8.002,-1.240,-8.535,-11.811,-2.544,-6.781,-0.028,0.940,-0.372,0.763,3.082,-0.946,60.000,229686.000,1.000
3.631,-2.574,-0.759,-3.789,-8.642,-9.885,-7.209,-3.059,-0.026,0.938,-0.371,0.854,3.113,-0.885,60.000,229687.000,1.000
-0.499,5.853,-0.650,-10.820,-12.933,-12.933,-15.548,-4.080,-0.028,0.940,-0.370,0.916,3.052,-0.763,60.000,229688.000,1.000
-1.060,-1.517,-4.741,-9.642,-12.431,-14.465,-14.528,-5.894,-0.028,0.938,-0.369,1.007,3.052,-0.702,60.000,229689.000,1.000
3.042,-13.377,-5.395,0.190,-5.394,-10.870,-4.927,-4.474,-0.029,0.938,-0.370,1.007,2.960,-0.641,60.000,229690.000,1.000
4.852,-13.445,-0.879,6.178,0.152,-6.495,-0.076,-1.144,-0.029,0.937,-0.371,1.038,3.082,-0.641,60.000,229691.000,1.000
-0.288,-2.336,2.712,0.521,-2.203,-7.163,-6.809,-0.154,-0.029,0.938,-0.372,1.129,2.991,-0.610,60.000,229692.000,1.000
-7.420,4.013,0.461,-8.635,-8.007,-11.478,-15.351,-2.208,-0.029,0.939,-0.372,1.129,2.838,-0.580,60.000,229693.000,1.000
-8.253,-3.262,-4.271,-8.210,-7.914,-12.397,-12.538,-3.252,-0.029,0.937,-0.370,1.251,2.777,-0.458,60.000,229694.000,1.000
-2.687,-13.920,-4.674,1.572,-0.851,-7.193,-0.343,-0.398,-0.029,0.937,-0.370,1.282,2.808,-0.458,60.000,229695.000,1.000
0.629,-13.307,-0.323,7.164,4.056,-1.788,6.205,3.456,-0.030,0.937,-0.371,1.373,2.808,-0.519,60.000,229696.000,1.000
-4.092,-2.992,1.994,0.227,-0.169,-3.039,-0.743,3.155,-0.030,0.937,-0.371,1.373,2.594,-0.610,60.000,229697.000,1.000
-11.763,1.505,-2.181,-10.731,-8.574,-9.328,-11.153,-1.623,-0.029,0.936,-0.368,1.434,2.533,-0.549,60.000,229698.000,1.000
-13.026,-7.240,-8.279,-11.675,-10.605,-12.324,-10.682,-5.482,-0.028,0.934,-0.371,1.465,2.441,-0.458,60.000,229699.000,1.000
-6.716,-17.623,-8.511,-1.977,-4.139,-7.880,-0.067,-4.224,-0.027,0.932,-0.369,1.465,2.472,-0.366,60.000,229700.000,1.000
-1.300,-14.802,-2.511,4.896,1.798,-1.482,6.140,-0.365,-0.029,0.931,-0.372,1.617,2.441,-0.305,60.000,229701.000,1.000
-3.301,-1.364,1.952,-0.080,-0.594,-0.741,-0.264,0.362,-0.027,0.930,-0.375,1.648,2.319,-0.427,60.000,229702.000,1.000
-8.599,5.889,-0.596,-9.253,-7.404,-5.159,-9.859,-3.220,-0.026,0.929,-0.375,1.892,2.380,-0.427,60.000,229703.000,1.000
-8.563,-1.360,-6.126,-9.238,-8.763,-7.224,-8.764,-6.326,-0.026,0.930,-0.373,1.953,2.380,-0.458,60.000,229704.000,1.000
-2.309,-11.855,-6.882,0.272,-2.645,-3.054,2.098,-4.906,-0.026,0.932,-0.374,2.075,2.319,-0.519,60.000,229705.000,1.000
2.108,-10.398,-1.998,6.066,2.548,2.337,8.430,-1.089,-0.024,0.932,-0.375,2.075,2.319,-0.488,60.000,229706.000,1.000
-0.942,1.299,1.582,-0.122,-0.026,2.237,2.512,-0.008,-0.024,0.931,-0.372,2.167,2.441,-0.488,60.000,229707.000,1.000
-6.659,7.125,-1.063,-9.955,-5.961,-2.343,-6.056,-2.556,-0.025,0.929,-0.372,2.350,2.380,-0.488,60.000,229708.000,1.000
-6.247,-1.036,-5.825,-9.721,-5.648,-4.044,-3.656,-4.035,-0.023,0.930,-0.373,2.441,2.441,-0.397,60.000,229709.000,1.000
1.132,-11.969,-5.066,1.020,2.338,0.617,8.417,-0.532,-0.023,0.933,-0.375,2.472,2.533,-0.519,60.000,229710.000,1.000
7.255,-10.666,1.853,8.990,8.989,6.240,15.509,5.658,-0.026,0.935,-0.375,2.502,2.655,-0.549,60.000,229711.000,1.000
6.024,0.756,7.502,5.423,6.933,5.718,9.536,8.989,-0.026,0.936,-0.374,2.502,2.625,-0.702,60.000,229712.000,1.000
1.662,6.021,6.389,-2.118,0.383,-0.060,-0.076,7.984,-0.027,0.937,-0.374,2.563,2.625,-0.763,60.000,229713.000,1.000
2.742,-2.451,2.382,-0.499,-0.668,-3.285,0.570,6.938,-0.028,0.939,-0.375,2.472,2.563,-0.885,60.000,229714.000,1.000
10.282,-12.597,3.257,10.561,5.929,0.318,10.832,9.682,-0.027,0.940,-0.377,2.441,2.533,-0.916,60.000,229715.000,1.000
16.350,-9.058,9.915,17.988,11.785,5.979,16.757,14.159,-0.026,0.939,-0.377,2.411,2.533,-1.038,60.000,229716.000,1.000
15.027,5.650,15.121,13.424,9.790,6.764,10.647,15.317,-0.026,0.940,-0.377,2.319,2.594,-1.099,60.000,229717.000,1.000
10.316,14.225,13.308,4.739,3.895,3.148,1.652,12.171,-0.025,0.940,-0.378,2.258,2.472,-1.038,60.000,229718.000,1.000
10.001,7.724,7.879,4.957,3.308,2.019,2.759,9.127,-0.025,0.940,-0.376,2.228,2.472,-1.129,60.000,229719.000,1.000
14.270,-2.792,6.184,14.022,9.402,6.709,12.465,9.775,-0.025,0.940,-0.377,2.045,2.533,-1.160,60.000,229720.000,1.000
15.222,-1.847,9.387,18.819,13.739,12.107,16.770,11.947,-0.026,0.940,-0.375,2.045,2.594,-1.160,60.000,229721.000,1.000
8.092,9.253,11.271,11.499,10.021,11.752,8.790,10.977,-0.026,0.940,-0.378,2.045,2.655,-1.221,60.000,229722.000,1.000
-1.354,14.793,7.559,0.739,3.306,7.007,-1.257,6.545,-0.026,0.938,-0.378,1.862,2.625,-1.190,60.000,229723.000,1.000
-3.702,7.037,2.605,0.263,3.537,5.464,0.356,3.582,-0.026,0.937,-0.378,1.862,2.594,-1.282,60.000,229724.000,1.000
2.054,-2.568,3.870,10.280,12.081,10.667,12.205,5.841,-0.027,0.938,-0.378,1.770,2.716,-1.251,60.000,229725.000,1.000
7.621,0.963,11.620,17.388,19.757,17.296,19.669,10.835,-0.025,0.941,-0.378,1.648,2.838,-1.129,60.000,229726.000,1.000
6.732,15.218,18.120,12.985,19.055,18.386,14.791,13.054,-0.026,0.942,-0.378,1.678,2.747,-1.068,60.000,229727.000,1.000
3.000,23.068,17.482,4.695,13.758,14.520,6.631,11.049,-0.027,0.942,-0.378,1.709,2.808,-1.038,60.000,229728.000,1.000
3.763,15.503,12.837,5.189,12.943,12.446,8.014,8.814,-0.027,0.941,-0.380,1.495,2.869,-1.007,60.000,229729.000,1.000
8.917,3.465,11.297,14.141,17.959,15.337,17.297,9.814,-0.029,0.941,-0.381,1.404,2.838,-0.946,60.000,229730.000,1.000
10.575,2.558,13.941,18.457,20.585,18.296,20.561,12.054,-0.029,0.941,-0.381,1.434,2.808,-0.793,60.000,229731.000,1.000
4.272,11.909,14.774,10.603,14.928,15.388,11.246,11.041,-0.031,0.941,-0.379,1.465,2.777,-0.763,60.000,229732.000,1.000
-4.008,16.169,9.813,-0.516,6.305,8.333,-0.144,6.357,-0.030,0.939,-0.380,1.282,2.808,-0.732,60.000,229733.000,1.000
-5.219,7.438,3.296,-1.518,4.433,4.549,-0.044,2.497,-0.028,0.939,-0.380,1.282,2.838,-0.671,60.000,229734.000,1.000
0.907,-3.353,2.318,7.195,10.278,7.181,9.801,2.888,-0.029,0.941,-0.380,1.221,2.838,-0.641,60.000,229735.000,1.000
5.810,-1.454,7.275,12.271,14.834,10.938,15.045,5.483,-0.030,0.939,-0.377,1.221,2.808,-0.580,60.000,229736.000,1.000
3.757,10.959,11.206,5.994,11.457,9.433,8.619,5.832,-0.032,0.938,-0.375,1.160,2.808,-0.488,60.000,229737.000,1.000
-0.752,17.287,9.088,-3.078,4.861,3.981,0.348,3.326,-0.031,0.936,-0.378,1.068,2.838,-0.427,60.000,229738.000,1.000
0.184,9.056,4.417,-2.044,4.447,1.742,3.157,2.012,-0.030,0.936,-0.380,1.038,2.747,-0.397,60.000,229739.000,1.000
6.211,-2.760,3.833,8.135,10.955,5.582,14.729,4.611,-0.031,0.936,-0.379,1.038,2.686,-0.305,60.000,229740.000,1.000
8.625,-3.221,7.416,13.416,15.009,9.762,20.114,8.126,-0.031,0.935,-0.379,1.068,2.655,-0.366,60.000,229741.000,1.000
2.393,6.020,8.462,5.754,9.927,7.744,12.125,7.591,-0.031,0.937,-0.378,0.916,2.747,-0.366,60.000,229742.000,1.000
-6.350,9.498,3.110,-5.668,1.187,1.433,1.449,3.006,-0.030,0.938,-0.378,1.007,2.655,-0.366,60.000,229743.000,1.000
-8.048,-0.024,-3.701,-6.676,-0.670,-1.048,2.293,-0.255,-0.029,0.935,-0.376,0.916,2.594,-0.183,60.000,229744.000,1.000
-2.326,-10.987,-4.442,2.855,5.847,3.741,13.091,1.602,-0.027,0.937,-0.376,0.824,2.625,-0.153,60.000,229745.000,1.000
1.791,-8.780,0.975,9.263,11.381,9.886,18.815,5.887,-0.026,0.936,-0.379,0.854,2.625,-0.214,60.000,229746.000,1.000
-1.764,3.916,5.033,4.075,8.572,10.070,11.631,7.183,-0.027,0.935,-0.373,0.854,2.411,-0.244,60.000,229747.000,1.000
-8.185,10.356,2.532,-4.643,1.768,5.129,1.307,4.507,-0.026,0.936,-0.375,0.916,2.411,-0.336,60.000,229748.000,1.000
-8.826,2.325,-2.744,-3.954,0.491,2.305,1.285,2.208,-0.025,0.937,-0.376,0.916,2.441,-0.336,60.000,229749.000,1.000
-3.194,-8.770,-3.516,5.719,6.034,5.012,9.998,3.668,-0.026,0.935,-0.377,0.824,2.411,-0.427,60.000,229750.000,1.000
0.442,-7.740,0.811,10.956,9.624,8.142,13.163,6.502,-0.027,0.936,-0.378,0.824,2.411,-0.427,60.000,229751.000,1.000
-3.614,3.333,3.188,3.705,4.503,5.197,3.674,5.772,-0.026,0.933,-0.376,0.824,2.350,-0.397,60.000,229752.000,1.000
-10.812,7.997,-1.342,-7.629,-4.676,-2.548,-8.407,0.828,-0.025,0.933,-0.376,0.854,2.441,-0.458,60.000,229753.000,1.000
-12.700,-1.634,-8.547,-9.593,-7.994,-7.407,-9.440,-3.548,-0.026,0.934,-0.374,0.854,2.319,-0.519,60.000,229754.000,1.000
-8.295,-13.482,-10.286,-1.767,-3.400,-5.214,-0.490,-3.234,-0.025,0.936,-0.379,0.854,2.411,-0.488,60.000,229755.000,1.000
-4.840,-11.595,-5.073,3.311,1.179,-0.284,4.793,0.123,-0.025,0.935,-0.375,0.854,2.411,-0.549,60.000,229756.000,1.000
-7.304,2.151,0.264,-2.096,-0.722,1.013,-0.630,1.682,-0.026,0.936,-0.374,0.793,2.533,-0.580,60.000,229757.000,1.000
-11.383,10.575,-0.102,-10.268,-5.137,-1.003,-7.612,-0.056,-0.027,0.934,-0.374,0.763,2.594,-0.580,60.000,229758.000,1.000
-9.695,4.523,-3.509,-9.131,-3.591,-0.310,-4.046,-1.717,-0.027,0.937,-0.376,0.702,2.563,-0.610,60.000,229759.000,1.000
-2.568,-5.105,-3.336,0.375,4.422,5.617,7.549,-0.460,-0.027,0.936,-0.374,0.732,2.563,-0.671,60.000,229760.000,1.000
1.794,-2.974,1.147,5.093,10.054,11.539,12.840,1.616,-0.024,0.934,-0.372,0.916,2.594,-0.763,60.000,229761.000,1.000
-1.488,9.422,3.739,-2.053,7.162,11.482,5.440,0.549,-0.024,0.935,-0.373,0.946,2.502,-0.702,60.000,229762.000,1.000
-6.875,16.231,0.515,-11.590,1.111,7.324,-3.776,-3.244,-0.025,0.937,-0.375,0.824,2.411,-0.763,60.000,229763.000,1.000
-5.603,9.601,-3.947,-9.765,1.826,6.644,-1.074,-4.633,-0.026,0.937,-0.375,0.916,2.563,-0.793,60.000,229764.000,1.000
2.474,0.717,-2.325,2.973,10.355,12.482,11.528,-0.309,-0.025,0.939,-0.378,0.824,2.686,-0.732,60.000,229765.000,1.000
8.596,4.091,5.372,12.564,17.276,18.946,18.885,6.483,-0.027,0.937,-0.376,0.793,2.594,-0.702,60.000,229766.000,1.000
6.726,16.908,11.280,10.142,15.151,18.784,13.003,9.663,-0.025,0.938,-0.375,0.702,2.594,-0.763,60.000,229767.000,1.000
1.262,22.299,9.735,3.386,8.120,12.766,3.281,7.759,-0.027,0.938,-0.377,0.732,2.625,-0.580,60.000,229768.000,1.000
0.481,12.228,4.376,5.080,5.672,8.168,2.925,5.183,-0.027,0.935,-0.378,0.702,2.655,-0.580,60.000,229769.000,1.000
4.866,-1.577,2.686,14.860,9.325,8.518,10.425,5.798,-0.026,0.935,-0.375,0.641,2.594,-0.580,60.000,229770.000,1.000
6.434,-3.832,5.489,19.384,10.587,8.774,11.704,7.605,-0.026,0.938,-0.373,0.671,2.655,-0.549,60.000,229771.000,1.000
0.120,3.526,6.044,10.829,3.139,2.747,0.082,5.853,-0.028,0.938,-0.372,0.763,2.625,-0.580,60.000,229772.000,1.000
-8.450,4.917,0.100,-1.722,-7.551,-7.386,-13.484,0.308,-0.029,0.938,-0.372,0.793,2.563,-0.610,60.000,229773.000,1.000
-9.859,-6.195,-7.291,-4.027,-10.802,-13.002,-14.417,-3.660,-0.029,0.938,-0.377,0.763,2.655,-0.488,60.000,229774.000,1.000
-3.261,-17.261,-7.989,4.336,-4.772,-10.060,-3.839,-1.977,-0.030,0.936,-0.377,0.641,2.625,-0.549,60.000,229775.000,1.000
2.787,-13.394,-1.530,9.943,1.388,-4.121,3.395,2.765,-0.029,0.936,-0.377,0.732,2.594,-0.519,60.000,229776.000,1.000
2.038,1.993,4.266,4.275,0.097,-2.628,-0.957,4.806,-0.028,0.937,-0.378,0.671,2.716,-0.458,60.000,229777.000,1.000
-1.450,11.080,3.541,-4.846,-4.833,-5.260,-7.978,2.672,-0.028,0.937,-0.376,0.671,2.625,-0.397,60.000,229778.000,1.000
0.195,5.022,-0.421,-4.742,-4.383,-5.343,-5.021,0.487,-0.026,0.938,-0.376,0.702,2.563,-0.458,60.000,229779.000,1.000
7.051,-4.868,-0.547,4.019,2.502,0.152,6.000,1.706,-0.027,0.936,-0.373,0.732,2.625,-0.549,60.000,229780.000,1.000
10.986,-3.290,3.862,8.196,7.203,6.086,11.052,4.175,-0.028,0.938,-0.374,0.641,2.655,-0.458,60.000,229781.000,1.000
6.930,7.894,6.217,0.322,3.465,6.266,3.652,3.292,-0.028,0.937,-0.372,0.610,2.625,-0.427,60.000,229782.000,1.000
0.066,12.610,2.099,-10.627,-3.623,2.210,-5.707,-1.252,-0.024,0.934,-0.374,0.732,2.716,-0.458,60.000,229783.000,1.000
-1.149,3.247,-4.216,-11.257,-4.335,1.211,-3.706,-4.634,-0.024,0.935,-0.375,0.671,2.625,-0.488,60.000,229784.000,1.000
3.513,-8.423,-5.327,-1.972,2.450,6.291,7.516,-3.223,-0.024,0.938,-0.374,0.580,2.594,-0.305,60.000,229785.000,1.000
6.104,-7.064,-0.580,3.921,7.910,12.108,13.403,0.740,-0.024,0.940,-0.375,0.580,2.747,-0.275,60.000,229786.000,1.000
1.898,5.423,3.281,-1.199,5.607,12.440,7.109,2.428,-0.026,0.938,-0.374,0.519,2.747,-0.214,60.000,229787.000,1.000
-3.898,12.581,1.368,-8.928,0.175,8.632,-1.307,0.862,-0.027,0.937,-0.377,0.549,2.747,-0.244,60.000,229788.000,1.000
-3.441,5.818,-2.938,-6.943,0.457,7.408,0.824,-0.301,-0.027,0.936,-0.375,0.610,2.838,-0.305,60.000,229789.000,1.000
2.498,-4.343,-3.190,3.309,6.708,11.095,10.827,1.464,-0.024,0.936,-0.374,0.671,2.838,-0.305,60.000,229790.000,1.000
5.069,-3.515,0.667,8.006,9.782,13.920,14.018,3.459,-0.027,0.937,-0.374,0.549,2.869,-0.275,60.000,229791.000,1.000
-0.605,6.389,2.105,-0.079,3.794,9.926,4.036,1.447,-0.024,0.937,-0.374,0.549,2.808,-0.275,60.000,229792.000,1.000
-8.457,10.063,-2.620,-11.283,-5.305,1.611,-7.959,-4.047,-0.023,0.937,-0.374,0.702,2.808,-0.214,60.000,229793.000,1.000
-9.477,0.456,-8.839,-11.955,-7.452,-2.993,-8.252,-7.891,-0.024,0.937,-0.373,0.763,2.869,-0.214,60.000,229794.000,1.000
-3.676,-10.901,-9.427,-2.815,-1.939,-0.872,0.901,-6.893,-0.024,0.936,-0.373,0.610,2.960,-0.366,60.000,229795.000,1.000
0.342,-9.471,-4.310,2.453,1.839,2.190,4.721,-3.864,-0.021,0.937,-0.373,0.610,3.021,-0.366,60.000,229796.000,1.000
-2.850,1.954,-0.758,-3.967,-2.884,-0.558,-3.763,-3.891,-0.023,0.937,-0.374,0.641,2.899,-0.336,60.000,229797.000,1.000
-8.562,6.477,-3.937,-13.660,-11.461,-8.064,-14.503,-7.787,-0.024,0.937,-0.373,0.610,2.960,-0.427,60.000,229798.000,1.000
-8.925,-3.981,-10.199,-13.895,-14.543,-13.220,-14.513,-11.230,-0.023,0.934,-0.374,0.671,3.082,-0.458,60.000,229799.000,1.000
-4.032,-17.573,-12.281,-5.306,-10.931,-12.568,-5.759,-10.724,-0.022,0.934,-0.373,0.671,3.204,-0.549,60.000,229800.000,1.000
-1.984,-18.752,-9.322,-1.002,-9.028,-10.804,-2.344,-8.351,-0.024,0.934,-0.370,0.702,3.296,-0.549,60.000,229801.000,1.000
-7.484,-9.254,-7.648,-8.145,-14.751,-13.759,-10.748,-8.627,-0.023,0.934,-0.372,0.671,3.235,-0.427,60.000,229802.000,1.000
-14.659,-4.820,-11.237,-17.416,-22.581,-19.576,-20.364,-11.754,-0.023,0.936,-0.374,0.732,3.143,-0.488,60.000,229803.000,1.000
-14.402,-12.663,-15.462,-15.324,-22.497,-20.704,-17.719,-12.882,-0.026,0.934,-0.372,0.732,3.174,-0.427,60.000,229804.000,1.000
-6.509,-21.210,-13.177,-2.710,-13.559,-14.302,-5.066,-8.736,-0.024,0.937,-0.372,0.854,3.113,-0.427,60.000,229805.000,1.000
0.032,-16.367,-4.826,6.109,-5.403,-6.615,2.452,-2.410,-0.024,0.936,-0.374,0.854,3.143,-0.427,60.000,229806.000,1.000
-0.993,-1.625,1.539,2.561,-5.447,-4.955,-2.647,0.524,-0.025,0.936,-0.375,0.854,3.204,-0.519,60.000,229807.000,1.000
-5.209,5.978,0.549,-5.053,-9.372,-8.234,-10.254,-0.664,-0.025,0.938,-0.375,0.854,3.082,-0.488,60.000,229808.000,1.000
-4.497,-1.307,-3.852,-3.720,-7.855,-9.011,-7.030,-1.224,-0.025,0.938,-0.369,0.763,3.113,-0.549,60.000,229809.000,1.000
1.202,-11.654,-4.403,5.805,-0.074,-4.112,4.840,2.148,-0.025,0.939,-0.373,0.916,3.021,-0.610,60.000,229810.000,1.000
3.567,-10.141,-0.750,9.840,4.761,0.879,10.423,6.420,-0.025,0.939,-0.370,0.946,3.082,-0.610,60.000,229811.000,1.000
-2.454,0.778,0.261,0.768,0.047,-0.578,2.524,6.214,-0.024,0.938,-0.371,0.885,3.052,-0.610,60.000,229812.000,1.000
-11.213,5.004,-5.475,-12.058,-8.907,-6.755,-8.390,1.186,-0.025,0.941,-0.372,0.977,3.021,-0.641,60.000,229813.000,1.000
-13.602,-4.634,-13.068,-14.644,-11.842,-9.849,-8.524,-3.334,-0.025,0.937,-0.373,0.885,2.930,-0.580,60.000,229814.000,1.000
-9.081,-16.172,-14.831,-7.003,-7.241,-6.530,0.463,-3.333,-0.024,0.937,-0.374,0.824,2.930,-0.641,60.000,229815.000,1.000
-5.926,-14.800,-10.424,-2.499,-3.853,-2.221,4.212,-1.149,-0.025,0.938,-0.375,0.793,2.808,-0.641,60.000,229816.000,1.000
-9.398,-3.076,-6.976,-8.895,-8.040,-3.232,-3.974,-1.751,-0.025,0.938,-0.373,0.824,2.838,-0.610,60.000,229817.000,1.000
-14.173,2.965,-8.939,-17.303,-14.466,-7.619,-13.313,-5.416,-0.025,0.938,-0.370,0.946,2.930,-0.732,60.000,229818.000,1.000
-11.639,-3.748,-11.809,-14.415,-13.122,-7.550,-9.985,-7.011,-0.024,0.937,-0.371,0.977,2.869,-0.671,60.000,229819.000,1.000
-2.256,-11.716,-8.718,-1.359,-3.341,-0.315,3.718,-3.169,-0.024,0.937,-0.370,0.946,2.838,-0.671,60.000,229820.000,1.000
4.179,-7.510,-0.791,6.968,4.486,7.120,11.887,2.495,-0.024,0.938,-0.371,0.946,2.747,-0.610,60.000,229821.000,1.000
1.153,4.668,3.410,1.520,2.210,6.635,5.949,3.582,-0.026,0.936,-0.370,0.946,2.777,-0.610,60.000,229822.000,1.000
-6.147,8.027,-0.997,-9.102,-5.722,-0.689,-4.512,-0.975,-0.027,0.938,-0.369,1.038,2.686,-0.610,60.000,229823.000,1.000
-7.951,-3.701,-8.520,-10.650,-8.691,-6.156,-5.455,-5.742,-0.026,0.936,-0.371,0.977,2.747,-0.610,60.000,229824.000,1.000
-2.649,-16.847,-10.106,-2.251,-3.997,-4.614,2.702,-5.890,-0.026,0.936,-0.371,0.977,2.655,-0.671,60.000,229825.000,1.000
2.056,-15.476,-4.468,3.545,0.585,-0.167,6.864,-2.918,-0.028,0.937,-0.373,1.007,2.502,-0.732,60.000,229826.000,1.000
0.447,-2.443,0.968,-0.984,-1.452,0.593,0.478,-1.698,-0.026,0.937,-0.372,0.885,2.563,-0.732,60.000,229827.000,1.000
-3.522,4.665,0.259,-7.959,-6.186,-2.266,-7.106,-3.505,-0.026,0.937,-0.371,1.007,2.502,-0.610,60.000,229828.000,1.000
-2.491,-2.824,-3.625,-5.375,-5.284,-3.008,-4.090,-4.633,-0.024,0.938,-0.372,1.099,2.441,-0.824,60.000,229829.000,1.000
3.296,-13.557,-3.788,5.478,1.621,0.687,6.582,-2.130,-0.024,0.938,-0.373,1.038,2.472,-0.702,60.000,229830.000,1.000
5.967,-12.368,0.611,11.202,5.898,3.810,10.664,1.677,-0.026,0.937,-0.371,1.038,2.502,-0.610,60.000,229831.000,1.000
1.280,-1.009,3.519,4.796,2.019,1.136,2.358,2.428,-0.026,0.938,-0.370,1.068,2.472,-0.580,60.000,229832.000,1.000
-4.639,5.027,1.189,-4.205,-4.113,-4.681,-7.029,0.167,-0.025,0.936,-0.370,1.160,2.441,-0.549,60.000,229833.000,1.000
-3.091,-1.457,-1.971,-2.475,-2.706,-5.915,-4.040,-0.353,-0.025,0.938,-0.372,1.160,2.441,-0.702,60.000,229834.000,1.000
5.272,-9.301,0.618,8.820,6.547,-0.040,8.625,3.844,-0.025,0.936,-0.372,1.129,2.441,-0.824,60.000,229835.000,1.000
10.976,-4.773,8.217,15.520,13.780,6.704,15.749,9.671,-0.024,0.934,-0.370,1.190,2.533,-0.793,60.000,229836.000,1.000
8.118,8.821,13.147,9.752,12.087,7.544,10.291,11.870,-0.024,0.934,-0.372,1.251,2.472,-0.732,60.000,229837.000,1.000
1.773,15.077,10.739,0.433,6.496,3.991,2.595,9.825,-0.025,0.935,-0.372,1.282,2.472,-0.854,60.000,229838.000,1.000
0.520,6.770,5.335,0.637,6.569,3.241,5.561,8.016,-0.024,0.935,-0.374,1.343,2.502,-0.916,60.000,229839.000,1.000
4.556,-4.223,4.140,9.368,12.957,7.846,16.428,9.580,-0.024,0.936,-0.373,1.373,2.411,-0.854,60.000,229840.000,1.000
5.673,-3.264,7.313,12.915,16.431,11.870,20.325,11.838,-0.024,0.936,-0.373,1.434,2.411,-0.793,60.000,229841.000,1.000
-1.002,6.964,7.918,3.883,10.633,8.913,10.679,9.971,-0.024,0.936,-0.376,1.404,2.441,-0.793,60.000,229842.000,1.000
-9.765,10.561,1.904,-8.347,1.055,1.139,-1.570,3.853,-0.025,0.937,-0.374,1.434,2.411,-0.824,60.000,229843.000,1.000
-11.648,0.929,-5.731,-10.153,-2.128,-3.210,-2.676,-1.402,-0.026,0.937,-0.375,1.373,2.441,-0.793,60.000,229844.000,1.000
-6.460,-9.718,-7.411,-2.131,2.282,-0.695,5.322,-2.165,-0.024,0.938,-0.374,1.404,2.472,-0.793,60.000,229845.000,1.000
-3.007,-7.249,-3.337,1.853,5.037,2.811,7.653,-1.168,-0.027,0.937,-0.374,1.343,2.441,-0.854,60.000,229846.000,1.000
-7.029,4.582,-1.287,-6.182,-0.737,0.275,-2.635,-3.651,-0.026,0.937,-0.374,1.343,2.441,-0.671,60.000,229847.000,1.000
-13.284,9.115,-5.871,-17.216,-9.919,-6.719,-14.848,-9.867,-0.025,0.937,-0.372,1.343,2.502,-0.793,60.000,229848.000,1.000
-12.610,-0.097,-11.970,-17.409,-12.163,-9.909,-15.036,-14.261,-0.026,0.938,-0.373,1.404,2.533,-0.885,60.000,229849.000,1.000
-4.205,-9.952,-11.364,-6.738,-5.718,-5.325,-4.799,-12.591,-0.026,0.937,-0.374,1.404,2.441,-0.916,60.000,229850.000,1.000
3.658,-5.446,-3.579,1.479,0.619,1.607,1.269,-7.380,-0.025,0.937,-0.373,1.404,2.441,-0.885,60.000,229851.000,1.000
5.011,9.627,3.549,-0.932,-0.324,3.441,-4.428,-4.511,-0.026,0.938,-0.374,1.434,2.411,-0.916,60.000,229852.000,1.000
3.822,17.443,4.252,-6.177,-4.711,0.318,-12.677,-5.699,-0.027,0.938,-0.376,1.282,2.472,-0.916,60.000,229853.000,1.000
7.608,10.078,2.083,-2.045,-3.778,-1.124,-10.943,-6.892,-0.026,0.938,-0.374,1.251,2.502,-0.946,60.000,229854.000,1.000
15.972,-0.352,4.058,10.238,3.179,2.129,-1.404,-4.647,-0.027,0.937,-0.374,1.160,2.563,-1.007,60.000,229855.000,1.000
20.235,0.917,10.006,16.827,7.153,4.668,1.679,-1.398,-0.024,0.938,-0.374,1.221,2.594,-0.946,60.000,229856.000,1.000
15.168,10.842,12.391,10.120,1.878,0.277,-8.015,-1.942,-0.023,0.938,-0.375,1.190,2.563,-0.885,60.000,229857.000,1.000
6.562,13.242,6.898,-0.512,-6.965,-8.732,-19.333,-6.194,-0.024,0.940,-0.375,1.221,2.655,-0.916,60.000,229858.000,1.000
3.825,1.767,-1.137,-1.288,-8.900,-13.805,-18.222,-8.673,-0.027,0.937,-0.375,1.251,2.625,-0.824,60.000,229859.000,1.000
7.628,-10.713,-3.470,7.376,-2.473,-11.065,-6.452,-5.573,-0.025,0.937,-0.372,1.251,2.625,-0.854,60.000,229860.000,1.000
9.500,-9.437,0.287,11.853,3.148,-6.038,1.192,0.237,-0.026,0.939,-0.377,1.282,2.655,-0.793,60.000,229861.000,1.000
3.764,2.014,2.493,4.325,0.804,-5.898,-2.808,3.049,-0.028,0.937,-0.377,1.373,2.655,-0.763,60.000,229862.000,1.000
-4.631,6.612,-1.886,-6.412,-5.084,-9.784,-8.821,1.811,-0.027,0.938,-0.374,1.282,2.655,-0.763,60.000,229863.000,1.000
-6.903,-2.608,-8.318,-7.020,-4.890,-10.233,-3.837,1.238,-0.028,0.938,-0.374,1.221,2.625,-0.610,60.000,229864.000,1.000
-2.375,-12.849,-8.922,2.124,2.799,-3.635,10.230,5.077,-0.028,0.938,-0.374,1.129,2.594,-0.732,60.000,229865.000,1.000
0.823,-9.169,-3.280,7.590,9.232,4.684,18.958,10.754,-0.031,0.938,-0.373,1.160,2.686,-0.702,60.000,229866.000,1.000
-2.883,4.838,1.045,1.464,7.600,7.720,15.138,12.758,-0.030,0.936,-0.374,1.190,2.594,-0.671,60.000,229867.000,1.000
-8.894,11.789,-1.132,-7.900,2.284,6.169,8.362,9.979,-0.032,0.939,-0.375,1.129,2.594,-0.671,60.000,229868.000,1.000
-9.014,4.061,-5.783,-7.730,2.371,6.838,11.137,6.844,-0.028,0.938,-0.373,1.129,2.533,-0.732,60.000,229869.000,1.000
-2.986,-6.260,-5.684,1.223,8.576,12.352,20.840,6.824,-0.030,0.938,-0.374,1.160,2.563,-0.641,60.000,229870.000,1.000
1.109,-4.524,-0.706,5.647,11.927,16.751,22.830,7.538,-0.028,0.938,-0.374,1.190,2.441,-0.549,60.000,229871.000,1.000
-1.692,6.362,2.165,-1.585,6.386,13.544,10.822,4.456,-0.027,0.936,-0.376,1.129,2.533,-0.610,60.000,229872.000,1.000
-5.964,10.546,-1.005,-10.966,-2.128,5.110,-3.685,-2.062,-0.028,0.935,-0.373,1.160,2.411,-0.549,60.000,229873.000,1.000
-3.257,1.710,-5.195,-9.031,-3.215,0.098,-6.367,-6.484,-0.026,0.935,-0.373,1.190,2.533,-0.549,60.000,229874.000,1.000
6.022,-7.855,-3.131,3.190,4.085,2.219,0.972,-5.205,-0.027,0.937,-0.374,1.190,2.563,-0.549,60.000,229875.000,1.000
12.748,-4.237,4.572,11.438,10.053,5.723,3.497,-1.338,-0.027,0.937,-0.375,1.282,2.594,-0.610,60.000,229876.000,1.000
11.207,8.580,9.924,7.472,7.466,3.663,-5.866,-0.538,-0.029,0.934,-0.373,1.251,2.594,-0.549,60.000,229877.000,1.000
6.660,13.918,8.254,-0.069,1.160,-2.435,-16.597,-3.416,-0.029,0.936,-0.372,1.312,2.563,-0.458,60.000,229878.000,1.000
7.933,5.246,4.394,1.976,0.924,-4.854,-15.228,-4.909,-0.029,0.936,-0.372,1.312,2.686,-0.336,60.000,229879.000,1.000
15.202,-4.895,5.812,12.886,7.642,-0.702,-4.152,-1.460,-0.029,0.936,-0.370,1.312,2.625,-0.397,60.000,229880.000,1.000
19.772,-2.256,12.161,19.065,11.920,3.752,1.548,3.949,-0.027,0.936,-0.372,1.343,2.655,-0.488,60.000,229881.000,1.000
15.940,9.292,15.471,12.792,6.928,1.357,-5.327,5.684,-0.025,0.937,-0.377,1.282,2.747,-0.427,60.000,229882.000,1.000
8.509,12.787,10.667,2.588,-2.424,-6.524,-14.691,2.706,-0.028,0.938,-0.374,1.251,2.747,-0.427,60.000,229883.000,1.000
5.995,1.469,2.326,1.172,-6.287,-12.012,-13.530,-0.470,-0.027,0.937,-0.374,1.282,2.563,-0.427,60.000,229884.000,1.000
9.206,-11.518,-1.307,7.954,-3.006,-11.024,-3.801,-0.041,-0.025,0.936,-0.377,1.221,2.594,-0.366,60.000,229885.000,1.000
10.805,-10.631,1.035,10.268,-0.640,-7.986,0.701,2.168,-0.023,0.936,-0.374,1.221,2.716,-0.336,60.000,229886.000,1.000
6.099,1.188,2.677,1.412,-5.202,-8.960,-6.238,1.608,-0.022,0.933,-0.373,1.343,2.747,-0.275,60.000,229887.000,1.000
-0.146,6.884,-1.247,-9.658,-12.102,-12.958,-14.589,-2.450,-0.023,0.932,-0.374,1.434,2.991,-0.305,60.000,229888.000,1.000
-0.439,-1.331,-7.058,-10.576,-12.697,-13.564,-12.191,-5.909,-0.023,0.933,-0.374,1.404,2.991,-0.397,60.000,229889.000,1.000
4.504,-11.793,-8.109,-2.847,-6.760,-8.486,-2.056,-5.785,-0.023,0.934,-0.377,1.434,3.174,-0.488,60.000,229890.000,1.000
6.251,-10.049,-4.539,0.041,-3.190,-3.328,1.488,-4.560,-0.025,0.934,-0.376,1.465,3.113,-0.427,60.000,229891.000,1.000
0.271,1.014,-3.255,-8.645,-7.647,-3.972,-7.216,-6.608,-0.024,0.933,-0.374,1.465,3.143,-0.427,60.000,229892.000,1.000
-7.418,5.354,-8.167,-19.274,-14.336,-8.235,-16.833,-11.743,-0.025,0.935,-0.377,1.495,3.143,-0.519,60.000,229893.000,1.000
-7.962,-3.644,-14.315,-18.786,-13.584,-8.539,-14.126,-14.988,-0.022,0.934,-0.374,1.648,3.265,-0.671,60.000,229894.000,1.000
-1.341,-13.538,-14.190,-8.450,-4.937,-2.133,-1.814,-13.030,-0.022,0.932,-0.376,1.648,3.235,-0.671,60.000,229895.000,1.000
3.933,-9.701,-7.703,-1.963,2.195,5.107,5.281,-8.552,-0.025,0.933,-0.377,1.678,3.204,-0.824,60.000,229896.000,1.000
2.558,4.553,-2.147,-6.520,1.289,6.557,0.418,-6.533,-0.026,0.934,-0.378,1.709,3.265,-0.671,60.000,229897.000,1.000
-0.652,12.342,-2.285,-13.100,-2.746,3.554,-6.380,-7.621,-0.026,0.936,-0.378,1.678,3.235,-0.702,60.000,229898.000,1.000
1.892,6.007,-4.283,-9.367,-0.944,3.001,-2.918,-7.616,-0.026,0.937,-0.379,1.740,3.265,-0.916,60.000,229899.000,1.000
9.375,-2.980,-1.660,2.778,6.802,7.359,7.729,-3.714,-0.026,0.939,-0.378,1.709,3.357,-0.854,60.000,229900.000,1.000
13.165,-0.535,5.116,9.359,11.198,10.915,11.147,1.156,-0.027,0.940,-0.377,1.648,3.387,-1.038,60.000,229901.000,1.000
8.538,10.225,8.861,3.351,6.250,7.630,1.533,2.083,-0.027,0.939,-0.378,1.556,3.357,-1.099,60.000,229902.000,1.000
1.559,13.661,5.712,-5.445,-2.111,-0.043,-9.732,-0.915,-0.027,0.941,-0.378,1.465,3.418,-1.160,60.000,229903.000,1.000
1.358,4.057,0.966,-3.449,-3.537,-3.734,-8.989,-2.533,-0.028,0.940,-0.376,1.465,3.479,-1.160,60.000,229904.000,1.000
7.869,-5.847,2.108,8.209,2.938,-0.189,1.340,0.675,-0.028,0.942,-0.377,1.343,3.418,-1.251,60.000,229905.000,1.000
11.857,-2.325,8.439,15.108,7.690,4.299,6.195,5.388,-0.030,0.941,-0.377,1.434,3.204,-1.251,60.000,229906.000,1.000
7.353,10.152,11.789,9.045,3.675,2.421,-1.434,5.827,-0.030,0.940,-0.376,1.373,3.052,-1.434,60.000,229907.000,1.000
-0.501,14.711,7.457,-1.154,-4.095,-4.324,-11.010,1.501,-0.031,0.940,-0.378,1.251,3.082,-1.343,60.000,229908.000,1.000
-2.860,4.987,0.397,-2.228,-5.744,-7.967,-9.199,-2.224,-0.029,0.940,-0.377,1.160,2.991,-1.221,60.000,229909.000,1.000
0.592,-6.307,-1.692,5.120,-0.302,-5.112,1.623,-1.417,-0.029,0.940,-0.379,1.160,3.021,-1.190,60.000,229910.000,1.000
1.721,-4.735,1.412,7.717,3.283,-1.157,6.927,1.502,-0.030,0.939,-0.377,1.129,3.052,-1.160,60.000,229911.000,1.000
-3.985,6.497,2.909,-0.970,-0.824,-2.056,0.610,1.783,-0.028,0.937,-0.376,1.190,2.899,-1.129,60.000,229912.000,1.000
-10.720,11.327,-1.144,-11.220,-6.929,-5.717,-6.492,-0.878,-0.029,0.936,-0.379,1.251,3.052,-0.977,60.000,229913.000,1.000
-10.435,3.009,-6.308,-10.386,-5.785,-5.091,-1.994,-2.251,-0.031,0.937,-0.376,1.129,2.899,-0.854,60.000,229914.000,1.000
-4.217,-6.617,-5.929,-0.475,2.363,1.669,10.394,0.120,-0.031,0.935,-0.378,1.129,2.899,-0.824,60.000,229915.000,1.000
-1.197,-3.683,-0.558,4.330,7.667,7.979,15.391,3.011,-0.029,0.936,-0.375,1.038,2.869,-0.824,60.000,229916.000,1.000
-6.364,8.216,2.479,-3.078,3.747,7.151,6.676,1.614,-0.030,0.935,-0.375,0.885,2.930,-0.702,60.000,229917.000,1.000
-13.566,13.045,-0.747,-12.808,-3.520,1.413,-4.368,-3.549,-0.029,0.937,-0.377,0.916,2.899,-0.580,60.000,229918.000,1.000
-13.301,5.040,-4.834,-11.034,-3.517,-0.646,-3.656,-6.480,-0.029,0.939,-0.377,0.885,2.930,-0.549,60.000,229919.000,1.000
-5.115,-2.839,-2.061,1.469,5.143,4.776,7.014,-3.113,-0.030,0.937,-0.375,0.946,2.899,-0.580,60.000,229920.000,1.000
2.076,3.235,7.028,10.604,13.087,11.944,13.108,3.566,-0.032,0.940,-0.372,0.854,2.747,-0.397,60.000,229921.000,1.000
2.089,18.539,14.078,8.194,13.057,13.666,7.742,7.637,-0.030,0.939,-0.375,0.824,2.747,-0.305,60.000,229922.000,1.000
-0.884,25.543,13.655,2.400,9.120,10.682,0.762,7.671,-0.030,0.939,-0.376,0.671,2.716,-0.275,60.000,229923.000,1.000
0.566,16.944,9.525,5.078,9.673,9.448,4.002,7.340,-0.027,0.938,-0.375,0.610,2.655,-0.244,60.000,229924.000,1.000
5.865,4.975,8.606,14.387,14.816,12.252,13.917,9.209,-0.024,0.938,-0.378,0.549,2.686,-0.244,60.000,229925.000,1.000
7.230,4.570,11.414,17.193,16.090,13.893,16.147,10.835,-0.026,0.938,-0.372,0.519,2.716,-0.244,60.000,229926.000,1.000
0.994,13.313,11.862,7.662,8.661,9.270,5.534,8.357,-0.027,0.938,-0.375,0.458,2.686,-0.275,60.000,229927.000,1.000
-6.551,15.563,6.373,-3.943,-1.183,1.177,-6.237,2.466,-0.026,0.935,-0.372,0.427,2.747,-0.275,60.000,229928.000,1.000
-7.038,4.862,-0.397,-4.539,-3.738,-2.634,-5.992,-1.629,-0.025,0.934,-0.372,0.458,2.747,-0.275,60.000,229929.000,1.000
-1.100,-6.625,-1.481,4.351,1.397,0.496,3.402,-0.653,-0.026,0.934,-0.376,0.397,2.777,-0.305,60.000,229930.000,1.000
2.408,-4.973,2.760,8.800,4.858,4.503,7.183,2.420,-0.025,0.934,-0.372,0.336,2.686,-0.275,60.000,229931.000,1.000
-1.795,5.904,4.856,1.402,0.118,2.592,-1.166,2.223,-0.026,0.936,-0.373,0.305,2.686,-0.336,60.000,229932.000,1.000
-8.495,9.356,0.357,-8.885,-7.875,-3.794,-11.291,-1.960,-0.026,0.934,-0.373,0.244,2.777,-0.427,60.000,229933.000,1.000
-9.353,-1.168,-6.073,-9.343,-9.791,-7.252,-10.553,-5.469,-0.026,0.935,-0.374,0.214,2.747,-0.366,60.000,229934.000,1.000
-4.402,-13.069,-7.039,-1.035,-4.865,-4.694,-1.554,-4.718,-0.024,0.932,-0.374,0.244,2.777,-0.549,60.000,229935.000,1.000
-1.695,-11.747,-2.386,3.052,-1.618,-1.238,1.848,-1.747,-0.024,0.934,-0.373,0.275,2.869,-0.610,60.000,229936.000,1.000
-5.677,-0.257,0.996,-3.431,-5.406,-2.417,-5.568,-0.785,-0.024,0.934,-0.372,0.336,2.838,-0.702,60.000,229937.000,1.000
-10.649,5.438,-1.022,-10.979,-10.452,-5.965,-12.570,-2.008,-0.024,0.936,-0.371,0.305,2.899,-0.793,60.000,229938.000,1.000
-8.525,-1.262,-4.137,-7.318,-7.708,-4.852,-6.861,-1.347,-0.025,0.938,-0.370,0.275,2.991,-0.793,60.000,229939.000,1.000
-0.222,-8.774,-1.929,5.199,2.188,2.497,7.450,3.343,-0.025,0.938,-0.371,0.336,3.021,-0.824,60.000,229940.000,1.000
5.035,-4.243,4.573,11.971,8.792,8.948,14.434,8.283,-0.024,0.937,-0.371,0.366,2.991,-0.854,60.000,229941.000,1.000
1.807,7.661,7.605,5.440,5.174,7.359,7.096,7.997,-0.026,0.938,-0.371,0.214,2.991,-0.854,60.000,229942.000,1.000
-4.328,10.709,3.189,-4.791,-3.051,-0.122,-3.617,2.604,-0.027,0.940,-0.370,0.336,3.082,-0.946,60.000,229943.000,1.000
-4.281,-0.235,-3.028,-4.910,-5.295,-4.790,-3.732,-1.854,-0.026,0.940,-0.371,0.488,3.235,-1.068,60.000,229944.000,1.000
2.383,-11.467,-3.047,4.607,-0.041,-2.698,5.100,-0.997,-0.028,0.938,-0.370,0.427,3.235,-1.038,60.000,229945.000,1.000
7.212,-8.745,2.834,10.205,3.684,0.662,8.607,2.477,-0.027,0.938,-0.373,0.519,3.326,-0.916,60.000,229946.000,1.000
