EEG 1,EEG 2,EEG 3,EEG 4,EEG 5,EEG 6,EEG 7,EEG 8,Accelerometer X,Accelerometer Y,Accelerometer Z,Gyroscope X,Gyroscope Y,Gyroscope Z,Battery Level,Counter,Validation Indicator
15.721,15.469,16.050,7.436,8.445,9.539,-1.051,5.092,-0.002,0.944,-0.350,1.129,2.625,-0.610,53.333,294817.000,1.000
8.927,17.364,11.000,-2.108,-0.121,2.801,-11.929,-0.685,-0.005,0.945,-0.347,1.068,2.716,-0.732,53.333,294818.000,1.000
8.881,9.361,6.020,-1.715,-1.964,-0.773,-11.721,-3.401,-0.003,0.946,-0.350,1.099,2.716,-0.732,53.333,294819.000,1.000
15.966,2.422,7.220,8.149,4.175,2.207,-2.059,0.208,-0.003,0.946,-0.351,1.068,2.716,-0.732,53.333,294820.000,1.000
20.688,5.603,12.143,14.014,8.513,5.655,2.604,4.691,-0.002,0.945,-0.353,1.068,2.716,-0.671,53.333,294821.000,1.000
16.531,13.363,13.066,7.870,3.744,2.617,-5.105,3.419,-0.003,0.945,-0.356,1.129,2.747,-0.793,53.333,294822.000,1.000
8.701,13.227,7.563,-1.952,-4.879,-4.851,-15.377,-2.266,-0.004,0.945,-0.355,1.129,2.777,-0.641,53.333,294823.000,1.000
6.807,3.273,1.815,-2.341,-6.714,-8.209,-14.689,-4.822,-0.002,0.946,-0.354,1.068,2.747,-0.671,53.333,294824.000,1.000
11.590,-4.841,2.126,6.547,-0.300,-4.036,-4.309,-0.790,-0.002,0.942,-0.355,1.190,2.716,-0.671,53.333,294825.000,1.000
14.125,-1.616,6.411,11.647,4.831,1.298,1.665,4.580,-0.002,0.946,-0.355,1.129,2.747,-0.732,53.333,294826.000,1.000
8.607,7.483,7.414,5.256,1.586,0.479,-4.006,4.759,-0.002,0.945,-0.356,1.190,2.777,-0.763,53.333,294827.000,1.000
0.798,9.685,2.943,-4.177,-4.790,-4.717,-11.702,1.045,-0.003,0.947,-0.355,1.282,2.838,-0.732,53.333,294828.000,1.000
0.205,2.336,-1.175,-3.784,-4.167,-6.135,-8.568,0.619,-0.004,0.944,-0.356,1.373,2.716,-0.793,53.333,294829.000,1.000
6.808,-3.815,0.613,5.725,4.070,-0.805,3.215,6.277,-0.006,0.947,-0.355,1.251,2.808,-0.854,53.333,294830.000,1.000
10.923,0.292,5.772,10.986,9.856,4.806,9.069,12.250,-0.007,0.946,-0.353,1.251,2.747,-0.763,53.333,294831.000,1.000
6.581,9.599,7.304,4.618,6.304,3.832,2.115,12.026,-0.005,0.945,-0.355,1.190,2.808,-0.793,53.333,294832.000,1.000
-0.123,12.125,3.619,-4.396,-0.673,-1.291,-7.157,7.275,-0.005,0.946,-0.352,1.221,2.747,-0.702,53.333,294833.000,1.000
0.642,5.633,0.834,-3.117,-0.432,-2.062,-5.142,5.463,-0.006,0.945,-0.353,1.251,2.747,-0.824,53.333,294834.000,1.000
8.917,0.744,4.266,7.345,7.737,4.350,6.253,9.523,-0.006,0.944,-0.350,1.221,2.625,-0.854,53.333,294835.000,1.000
14.902,6.178,10.914,13.216,13.654,11.119,12.313,13.879,-0.007,0.944,-0.352,1.312,2.563,-0.885,53.333,294836.000,1.000
12.492,16.552,13.435,7.056,10.372,11.071,5.833,12.312,-0.006,0.943,-0.353,1.343,2.472,-0.854,53.333,294837.000,1.000
7.726,19.685,10.258,-1.814,3.884,6.457,-2.971,6.782,-0.006,0.942,-0.351,1.221,2.472,-0.885,53.333,294838.000,1.000
10.491,13.379,7.894,0.095,4.980,5.760,-0.624,4.967,-0.006,0.944,-0.351,1.221,2.563,-0.854,53.333,294839.000,1.000
20.782,8.446,12.075,11.993,14.340,11.890,10.936,9.762,-0.005,0.944,-0.353,1.129,2.472,-0.824,53.333,294840.000,1.000
28.338,13.576,19.729,19.801,21.289,17.934,16.866,15.130,-0.004,0.947,-0.352,1.099,2.411,-0.824,53.333,294841.000,1.000
26.122,22.925,22.786,15.117,17.947,16.320,9.627,14.075,-0.004,0.948,-0.355,1.099,2.350,-0.885,53.333,294842.000,1.000
19.277,23.832,18.724,6.127,9.486,8.918,-0.928,7.908,-0.006,0.949,-0.355,1.129,2.350,-0.885,53.333,294843.000,1.000
17.613,14.279,13.658,5.825,6.763,4.403,-1.226,4.308,-0.006,0.948,-0.352,1.099,2.319,-0.854,53.333,294844.000,1.000
22.239,6.049,13.909,14.075,11.660,6.627,7.599,6.963,-0.007,0.947,-0.354,1.068,2.258,-0.671,53.333,294845.000,1.000
24.623,8.906,17.548,18.149,15.136,9.894,11.793,10.884,-0.006,0.946,-0.356,1.068,2.258,-0.580,53.333,294846.000,1.000
19.021,17.439,17.408,10.794,10.360,7.409,4.454,9.623,-0.008,0.947,-0.353,0.977,2.258,-0.702,53.333,294847.000,1.000
10.860,18.656,11.325,0.734,2.585,1.104,-4.608,4.370,-0.005,0.947,-0.352,0.977,2.258,-0.641,53.333,294848.000,1.000
9.404,9.826,5.399,0.947,2.039,-0.807,-2.259,2.382,-0.006,0.949,-0.353,1.007,2.258,-0.610,53.333,294849.000,1.000
14.842,2.098,5.753,10.795,9.710,4.860,9.822,6.950,-0.006,0.947,-0.351,0.916,2.197,-0.580,53.333,294850.000,1.000
17.864,5.094,10.234,16.828,15.830,11.777,17.409,12.863,-0.007,0.947,-0.351,0.824,2.258,-0.610,53.333,294851.000,1.000
12.511,13.803,11.565,11.291,13.268,12.685,13.288,13.658,-0.008,0.945,-0.353,0.824,2.258,-0.488,53.333,294852.000,1.000
4.514,15.723,7.521,2.774,7.280,9.129,6.984,10.552,-0.007,0.946,-0.354,0.916,2.380,-0.549,53.333,294853.000,1.000
3.506,8.127,3.913,4.225,7.972,8.759,11.034,10.576,-0.006,0.946,-0.356,0.854,2.289,-0.427,53.333,294854.000,1.000
9.695,1.425,6.158,14.775,15.769,13.895,22.719,16.327,-0.008,0.944,-0.356,0.793,2.228,-0.519,53.333,294855.000,1.000
13.428,4.061,11.195,20.508,20.086,17.370,26.761,21.633,-0.007,0.944,-0.353,0.793,2.167,-0.641,53.333,294856.000,1.000
8.480,10.337,11.333,13.387,13.486,11.953,15.826,19.553,-0.005,0.946,-0.353,0.854,2.319,-0.549,53.333,294857.000,1.000
0.849,8.436,4.975,2.409,2.093,0.707,0.876,11.954,-0.004,0.944,-0.354,0.854,2.258,-0.427,53.333,294858.000,1.000
0.693,-2.582,-0.775,1.475,-2.210,-6.233,-3.051,7.316,-0.004,0.943,-0.354,0.793,2.319,-0.458,53.333,294859.000,1.000
8.315,-10.609,0.472,10.511,2.655,-4.442,3.607,9.552,-0.004,0.943,-0.354,0.824,2.350,-0.397,53.333,294860.000,1.000
13.569,-6.483,5.851,15.859,6.865,-0.311,6.687,13.182,-0.005,0.944,-0.356,0.977,2.380,-0.305,53.333,294861.000,1.000
9.486,3.570,7.214,9.203,2.629,-1.815,-1.502,11.267,-0.005,0.941,-0.355,0.946,2.319,-0.275,53.333,294862.000,1.000
1.439,6.173,2.153,-1.191,-5.242,-7.791,-11.618,4.962,-0.003,0.942,-0.353,1.007,2.289,-0.336,53.333,294863.000,1.000
-0.376,-1.263,-2.850,-2.151,-6.392,-10.100,-10.607,1.705,-0.005,0.942,-0.354,1.007,2.502,-0.336,53.333,294864.000,1.000
5.369,-7.280,-1.278,6.195,0.499,-5.276,-0.174,4.789,-0.003,0.943,-0.355,1.068,2.533,-0.366,53.333,294865.000,1.000
9.832,-2.300,4.634,10.749,5.828,0.534,5.256,8.741,-0.004,0.944,-0.356,1.099,2.533,-0.427,53.333,294866.000,1.000
6.556,8.180,7.072,3.680,2.385,0.091,-1.698,6.833,-0.004,0.946,-0.357,1.099,2.502,-0.397,53.333,294867.000,1.000
0.318,11.152,3.263,-6.733,-4.696,-4.920,-11.276,0.295,-0.003,0.946,-0.354,1.068,2.655,-0.397,53.333,294868.000,1.000
0.086,3.835,-1.085,-7.660,-5.164,-6.347,-10.144,-3.446,-0.002,0.946,-0.351,1.038,2.716,-0.336,53.333,294869.000,1.000
6.087,-2.807,-0.076,0.381,1.944,-1.077,0.115,-1.026,-0.001,0.944,-0.354,1.038,2.808,-0.275,53.333,294870.000,1.000
9.198,0.548,4.020,4.183,6.758,4.441,5.196,2.286,0.000,0.943,-0.354,0.977,2.777,-0.244,53.333,294871.000,1.000
3.732,8.767,4.090,-3.642,2.216,3.090,-1.996,0.113,-0.001,0.941,-0.357,1.099,2.869,-0.275,53.333,294872.000,1.000
-4.128,9.716,-1.468,-13.944,-5.896,-2.894,-11.280,-5.851,0.000,0.939,-0.354,1.221,2.899,-0.275,53.333,294873.000,1.000
-4.330,1.320,-6.031,-13.272,-6.654,-4.903,-9.171,-7.971,0.000,0.939,-0.355,1.312,3.021,-0.214,53.333,294874.000,1.000
3.383,-5.484,-3.624,-2.339,1.028,0.119,2.371,-3.239,0.001,0.939,-0.354,1.343,3.113,-0.366,53.333,294875.000,1.000
8.999,-1.926,2.807,4.830,6.871,5.372,8.458,2.406,0.000,0.941,-0.354,1.434,3.113,-0.488,53.333,294876.000,1.000
5.655,6.317,5.132,-0.110,3.231,3.438,1.578,2.028,-0.001,0.941,-0.358,1.465,3.204,-0.519,53.333,294877.000,1.000
-1.359,6.814,0.818,-8.720,-4.600,-3.586,-8.275,-2.918,0.000,0.940,-0.360,1.678,3.326,-0.641,53.333,294878.000,1.000
-2.155,-2.435,-3.835,-7.648,-5.845,-6.936,-7.453,-4.616,-0.001,0.940,-0.358,1.770,3.387,-0.641,53.333,294879.000,1.000
4.031,-10.104,-2.510,2.845,0.835,-3.187,2.544,0.345,0.000,0.939,-0.358,1.892,3.296,-0.641,53.333,294880.000,1.000
7.832,-7.058,2.435,9.241,5.524,1.109,7.261,6.278,0.000,0.939,-0.358,2.014,3.418,-0.763,53.333,294881.000,1.000
2.935,1.193,3.503,3.612,0.945,-1.345,-0.492,6.330,0.000,0.939,-0.357,2.075,3.448,-0.854,53.333,294882.000,1.000
-4.911,2.235,-1.273,-5.244,-7.271,-8.328,-10.449,1.980,-0.003,0.941,-0.354,2.075,3.418,-0.732,53.333,294883.000,1.000
-5.753,-6.169,-5.574,-3.997,-8.352,-11.160,-9.031,0.817,-0.004,0.943,-0.354,2.167,3.448,-0.916,53.333,294884.000,1.000
0.728,-13.170,-3.753,6.582,-1.422,-6.787,1.736,5.782,-0.003,0.945,-0.355,2.258,3.510,-1.038,53.333,294885.000,1.000
4.731,-9.957,1.144,12.519,3.179,-2.078,6.832,10.937,-0.005,0.947,-0.355,2.106,3.448,-1.068,53.333,294886.000,1.000
-0.085,-1.883,1.487,5.882,-1.825,-4.326,-1.140,9.604,-0.008,0.949,-0.355,2.045,3.296,-1.160,53.333,294887.000,1.000
-7.750,-0.811,-4.299,-4.235,-10.440,-10.997,-11.687,3.643,-0.007,0.951,-0.354,1.953,3.387,-1.343,53.333,294888.000,1.000
-8.106,-8.390,-9.260,-4.110,-11.387,-12.945,-10.627,1.119,-0.008,0.951,-0.355,1.892,3.326,-1.373,53.333,294889.000,1.000
-0.820,-13.653,-7.238,5.846,-3.467,-6.894,0.601,5.381,-0.007,0.952,-0.360,1.801,3.265,-1.343,53.333,294890.000,1.000
4.019,-8.338,-1.304,11.732,2.745,-0.045,6.944,10.442,-0.008,0.953,-0.358,1.770,3.235,-1.465,53.333,294891.000,1.000
-0.426,1.302,0.308,5.209,-0.795,-0.472,0.248,8.973,-0.007,0.953,-0.358,1.556,3.143,-1.526,53.333,294892.000,1.000
-8.606,2.621,-4.803,-5.333,-8.978,-6.519,-10.000,1.991,-0.006,0.955,-0.359,1.617,2.960,-1.465,53.333,294893.000,1.000
-10.366,-6.260,-10.199,-6.671,-10.948,-9.441,-10.176,-2.864,-0.006,0.954,-0.355,1.526,2.930,-1.465,53.333,294894.000,1.000
-4.757,-13.644,-9.476,0.968,-5.013,-5.338,-1.291,-1.804,-0.007,0.952,-0.355,1.404,2.899,-1.526,53.333,294895.000,1.000
-0.894,-9.896,-4.736,4.600,-0.456,-0.009,2.970,0.414,-0.007,0.950,-0.354,1.312,2.838,-1.495,53.333,294896.000,1.000
-4.903,-0.293,-3.179,-2.960,-4.049,-0.348,-4.114,-2.179,-0.005,0.948,-0.357,1.312,2.808,-1.343,53.333,294897.000,1.000
-11.319,2.415,-6.889,-12.704,-10.329,-4.497,-12.585,-7.968,-0.006,0.948,-0.356,1.221,2.838,-1.343,53.333,294898.000,1.000
-10.878,-4.545,-10.051,-11.738,-9.208,-4.546,-9.598,-9.842,-0.006,0.948,-0.359,1.129,2.747,-1.282,53.333,294899.000,1.000
-3.704,-10.371,-7.294,-1.264,-0.273,2.108,2.488,-5.154,-0.007,0.948,-0.359,1.007,2.777,-1.038,53.333,294900.000,1.000
0.394,-5.903,-1.580,4.648,6.085,8.614,8.857,0.279,-0.006,0.947,-0.356,0.946,2.838,-0.946,53.333,294901.000,1.000
-5.005,3.397,-0.662,-2.090,2.402,7.593,2.154,-0.237,-0.006,0.946,-0.358,0.946,2.716,-0.854,53.333,294902.000,1.000
-14.277,4.869,-6.676,-12.786,-5.917,1.017,-7.676,-5.317,-0.008,0.946,-0.357,1.038,2.777,-0.732,53.333,294903.000,1.000
-17.238,-3.703,-13.008,-13.869,-7.954,-2.428,-7.074,-7.379,-0.010,0.946,-0.355,0.916,2.716,-0.732,53.333,294904.000,1.000
-12.569,-10.745,-12.855,-5.168,-1.915,1.059,2.712,-2.928,-0.011,0.945,-0.353,0.946,2.502,-0.610,53.333,294905.000,1.000
-8.849,-6.580,-7.890,0.457,2.967,5.672,7.762,2.813,-0.014,0.944,-0.353,0.885,2.472,-0.488,53.333,294906.000,1.000
-12.006,3.554,-5.248,-4.600,-0.262,4.508,1.101,3.279,-0.013,0.942,-0.355,0.977,2.411,-0.427,53.333,294907.000,1.000
-16.837,6.964,-7.328,-12.025,-6.393,-0.644,-7.467,-0.349,-0.008,0.943,-0.355,0.854,2.289,-0.458,53.333,294908.000,1.000
-14.467,0.887,-8.688,-9.356,-5.352,-1.865,-4.959,-0.929,-0.009,0.946,-0.353,0.854,2.167,-0.458,53.333,294909.000,1.000
-5.304,-4.118,-4.247,2.242,3.480,3.639,6.613,4.513,-0.007,0.943,-0.352,0.824,2.136,-0.366,53.333,294910.000,1.000
0.734,0.695,2.806,8.975,9.873,9.232,12.677,10.347,-0.009,0.945,-0.353,0.763,2.228,-0.366,53.333,294911.000,1.000
-2.665,9.696,4.669,3.022,6.376,7.651,5.904,9.815,-0.007,0.943,-0.351,0.763,2.106,-0.244,53.333,294912.000,1.000
-9.679,10.443,-0.680,-6.888,-1.713,0.887,-3.927,4.156,-0.008,0.944,-0.354,0.671,2.075,-0.153,53.333,294913.000,1.000
-10.250,0.930,-6.663,-7.497,-3.815,-2.600,-3.659,0.750,-0.007,0.945,-0.354,0.671,2.045,-0.092,53.333,294914.000,1.000
-3.681,-7.378,-6.809,0.909,1.364,0.495,4.934,2.883,-0.004,0.942,-0.354,0.702,2.197,-0.092,53.333,294915.000,1.000
0.695,-5.021,-3.096,5.267,4.403,4.041,7.766,5.440,-0.004,0.946,-0.354,0.671,2.197,-0.122,53.333,294916.000,1.000
-3.401,2.795,-2.611,-1.849,-1.221,1.401,-1.620,2.445,-0.002,0.944,-0.353,0.641,2.197,-0.031,53.333,294917.000,1.000
-10.514,3.676,-7.377,-11.726,-9.588,-5.053,-12.619,-4.203,-0.004,0.944,-0.354,0.519,2.319,0.031,53.333,294918.000,1.000
-11.085,-4.716,-11.462,-11.485,-10.214,-7.092,-11.846,-7.022,-0.003,0.943,-0.354,0.580,2.289,-0.061,53.333,294919.000,1.000
-4.666,-11.386,-9.264,-1.969,-2.511,-2.026,-1.457,-3.148,-0.004,0.945,-0.357,0.488,2.350,-0.122,53.333,294920.000,1.000
-0.384,-7.216,-3.438,3.278,3.150,3.350,3.695,1.596,-0.001,0.947,-0.355,0.580,2.319,-0.244,53.333,294921.000,1.000
-3.992,2.452,-1.321,-3.247,-0.513,1.921,-3.641,0.628,-0.002,0.947,-0.354,0.488,2.350,-0.214,53.333,294922.000,1.000
-9.594,5.184,-4.795,-12.480,-7.806,-4.031,-13.228,-4.358,-0.001,0.946,-0.352,0.488,2.411,-0.183,53.333,294923.000,1.000
-7.879,-1.692,-7.876,-11.269,-8.147,-6.137,-11.623,-5.886,-0.001,0.944,-0.353,0.519,2.441,-0.244,53.333,294924.000,1.000
0.540,-7.905,-5.329,-0.664,-0.914,-1.726,-0.911,-1.240,-0.001,0.945,-0.353,0.519,2.472,-0.366,53.333,294925.000,1.000
5.373,-4.853,-0.232,5.335,3.575,2.312,4.096,3.616,-0.003,0.946,-0.353,0.519,2.594,-0.427,53.333,294926.000,1.000
0.384,2.249,0.077,-1.114,-1.705,-1.035,-3.727,2.155,0.000,0.943,-0.357,0.458,2.716,-0.427,53.333,294927.000,1.000
-8.123,1.592,-5.836,-11.004,-10.676,-9.099,-13.990,-3.716,0.000,0.944,-0.355,0.519,2.808,-0.488,53.333,294928.000,1.000
-9.637,-8.506,-11.164,-10.851,-12.258,-12.788,-13.034,-6.147,0.000,0.944,-0.357,0.549,2.747,-0.580,53.333,294929.000,1.000
-3.240,-16.539,-9.713,-1.095,-5.252,-8.535,-2.568,-1.931,-0.002,0.944,-0.357,0.580,2.869,-0.580,53.333,294930.000,1.000
1.838,-13.015,-3.976,4.782,0.369,-2.724,2.924,3.260,-0.004,0.947,-0.359,0.641,2.899,-0.702,53.333,294931.000,1.000
-0.728,-3.239,-1.559,-0.986,-2.709,-2.761,-3.793,2.679,-0.003,0.947,-0.356,0.702,2.869,-0.793,53.333,294932.000,1.000
-5.803,-0.012,-4.855,-9.754,-9.264,-7.107,-12.846,-2.354,-0.003,0.947,-0.355,0.732,3.021,-0.824,53.333,294933.000,1.000
-4.351,-6.214,-8.008,-8.493,-9.046,-7.850,-11.043,-4.418,-0.001,0.948,-0.354,0.641,2.991,-0.824,53.333,294934.000,1.000
3.441,-11.309,-5.347,2.001,-1.285,-2.201,-0.330,-0.396,-0.001,0.947,-0.354,0.610,3.113,-0.824,53.333,294935.000,1.000
7.768,-6.533,0.396,7.884,3.901,3.117,4.605,4.048,-0.003,0.949,-0.355,0.671,3.082,-0.854,53.333,294936.000,1.000
2.409,2.506,1.596,1.120,-0.720,0.850,-3.554,2.188,-0.003,0.948,-0.355,0.702,2.991,-0.824,53.333,294937.000,1.000
-6.694,3.324,-3.871,-9.611,-9.549,-6.833,-14.677,-4.551,-0.003,0.948,-0.354,0.671,2.930,-0.916,53.333,294938.000,1.000
-9.322,-6.191,-9.645,-10.908,-11.743,-11.136,-15.022,-8.541,-0.005,0.948,-0.356,0.702,3.052,-1.038,53.333,294939.000,1.000
-4.431,-14.470,-9.289,-2.817,-5.784,-8.237,-5.760,-6.185,-0.005,0.950,-0.353,0.732,3.143,-0.854,53.333,294940.000,1.000
-0.810,-11.592,-4.574,1.838,-1.013,-3.846,-0.748,-2.403,-0.005,0.949,-0.354,0.732,3.174,-0.793,53.333,294941.000,1.000
-4.329,-2.274,-2.405,-4.211,-4.215,-4.648,-6.875,-3.368,-0.007,0.949,-0.349,0.732,3.204,-0.854,53.333,294942.000,1.000
-9.549,1.167,-4.828,-12.223,-9.948,-8.689,-14.310,-7.608,-0.007,0.946,-0.347,0.763,3.082,-0.824,53.333,294943.000,1.000
-7.494,-4.209,-6.230,-9.572,-8.218,-8.270,-10.322,-8.013,-0.004,0.944,-0.350,0.732,2.960,-0.793,53.333,294944.000,1.000
1.129,-8.571,-1.704,2.282,1.107,-1.335,2.450,-2.084,-0.006,0.945,-0.353,0.854,2.930,-0.793,53.333,294945.000,1.000
5.955,-3.839,5.282,9.094,7.379,4.816,8.873,3.974,-0.005,0.945,-0.351,0.824,2.960,-0.732,53.333,294946.000,1.000
0.615,4.406,6.915,2.895,3.321,3.016,1.697,3.238,-0.007,0.941,-0.351,0.885,2.991,-0.641,53.333,294947.000,1.000
-8.586,4.451,1.471,-7.324,-5.103,-3.978,-8.571,-2.687,-0.007,0.943,-0.351,0.946,2.930,-0.580,53.333,294948.000,1.000
-10.928,-4.934,-4.161,-7.990,-6.689,-6.930,-7.906,-5.851,-0.007,0.942,-0.353,1.038,2.930,-0.519,53.333,294949.000,1.000
-5.298,-12.065,-3.527,0.607,-0.019,-2.341,2.302,-2.656,-0.005,0.940,-0.351,1.160,2.930,-0.519,53.333,294950.000,1.000
-1.027,-7.944,0.956,5.107,4.936,3.081,7.525,1.500,-0.004,0.939,-0.352,1.221,2.838,-0.519,53.333,294951.000,1.000
-4.712,1.440,1.634,-2.111,0.705,1.740,0.296,-0.070,-0.004,0.939,-0.353,1.343,2.808,-0.488,53.333,294952.000,1.000
-11.301,3.103,-3.738,-12.168,-7.435,-4.556,-9.582,-6.020,-0.003,0.939,-0.351,1.404,2.838,-0.427,53.333,294953.000,1.000
-11.587,-5.510,-8.954,-11.830,-8.888,-7.348,-8.815,-8.925,-0.002,0.937,-0.353,1.495,2.838,-0.458,53.333,294954.000,1.000
-5.516,-13.510,-8.066,-1.880,-2.542,-3.456,0.762,-5.760,-0.004,0.938,-0.352,1.801,2.808,-0.458,53.333,294955.000,1.000
-2.529,-11.823,-3.637,3.746,1.641,0.574,4.656,-2.192,-0.003,0.942,-0.350,1.801,2.777,-0.458,53.333,294956.000,1.000
-8.257,-5.405,-2.996,-2.914,-3.426,-2.250,-4.023,-4.580,-0.005,0.942,-0.351,1.862,2.716,-0.488,53.333,294957.000,1.000
-16.231,-5.767,-7.868,-12.893,-11.895,-9.392,-14.703,-10.872,-0.007,0.943,-0.352,1.831,2.747,-0.641,53.333,294958.000,1.000
-16.393,-14.429,-11.906,-12.665,-12.895,-12.050,-13.635,-13.153,-0.006,0.942,-0.351,1.770,2.716,-0.671,53.333,294959.000,1.000
-8.716,-20.304,-9.460,-2.727,-5.464,-7.137,-2.642,-8.384,-0.007,0.942,-0.352,1.831,2.686,-0.702,53.333,294960.000,1.000
-3.226,-14.859,-3.460,3.205,0.139,-1.483,3.433,-2.601,-0.006,0.943,-0.353,1.892,2.625,-0.824,53.333,294961.000,1.000
-6.352,-4.152,-1.483,-2.787,-3.419,-2.470,-2.949,-2.785,-0.007,0.946,-0.353,1.862,2.655,-0.885,53.333,294962.000,1.000
-12.305,-0.946,-5.379,-11.934,-10.471,-7.971,-11.877,-7.459,-0.007,0.944,-0.353,1.801,2.594,-0.885,53.333,294963.000,1.000
-11.314,-7.686,-8.822,-11.036,-10.352,-9.522,-9.980,-8.936,-0.007,0.947,-0.356,1.770,2.441,-0.946,53.333,294964.000,1.000
-3.232,-13.567,-6.109,-0.781,-2.324,-4.264,0.882,-4.024,-0.006,0.946,-0.354,1.831,2.502,-1.007,53.333,294965.000,1.000
2.319,-9.573,-0.031,5.283,3.271,0.959,6.117,1.606,-0.003,0.945,-0.354,1.923,2.472,-1.068,53.333,294966.000,1.000
-0.747,-0.829,1.916,-0.468,-0.867,-1.057,-1.435,1.262,-0.003,0.945,-0.353,1.801,2.563,-1.099,53.333,294967.000,1.000
-6.738,0.613,-2.311,-9.307,-9.110,-8.022,-11.631,-3.661,-0.005,0.947,-0.355,1.770,2.472,-1.221,53.333,294968.000,1.000
-6.312,-7.479,-6.673,-8.463,-10.773,-11.301,-11.049,-5.818,-0.006,0.947,-0.356,1.801,2.533,-1.221,53.333,294969.000,1.000
0.343,-14.361,-5.493,0.941,-4.787,-7.721,-1.518,-2.198,-0.006,0.947,-0.355,1.801,2.533,-1.129,53.333,294970.000,1.000
3.589,-11.152,-1.279,5.302,-0.937,-3.764,2.523,1.788,-0.005,0.947,-0.361,1.709,2.625,-1.068,53.333,294971.000,1.000
-2.234,-3.057,-1.028,-2.482,-5.964,-6.287,-5.751,0.137,-0.005,0.948,-0.360,1.740,2.594,-1.099,53.333,294972.000,1.000
-10.458,-1.855,-6.060,-12.645,-13.750,-12.565,-15.663,-4.893,-0.005,0.948,-0.357,1.770,2.686,-1.129,53.333,294973.000,1.000
-10.598,-9.180,-9.687,-11.394,-13.399,-13.642,-13.383,-5.447,-0.006,0.948,-0.358,1.770,2.686,-1.038,53.333,294974.000,1.000
-2.451,-14.081,-6.308,0.303,-4.333,-6.679,-0.957,1.054,-0.006,0.948,-0.358,1.617,2.655,-0.977,53.333,294975.000,1.000
3.523,-8.356,0.598,7.767,2.490,0.768,6.244,7.869,-0.006,0.948,-0.360,1.556,2.655,-1.007,53.333,294976.000,1.000
0.217,1.661,2.823,2.247,-0.815,0.644,0.278,7.562,-0.008,0.948,-0.359,1.526,2.808,-0.916,53.333,294977.000,1.000
-6.909,3.279,-1.722,-7.679,-8.648,-5.094,-8.962,1.632,-0.008,0.948,-0.355,1.434,2.777,-0.824,53.333,294978.000,1.000
-7.819,-5.432,-6.413,-8.327,-9.863,-7.585,-7.785,-1.835,-0.009,0.949,-0.357,1.221,2.777,-0.732,53.333,294979.000,1.000
-1.721,-12.793,-4.868,0.414,-2.860,-3.128,2.556,1.015,-0.009,0.951,-0.357,1.190,2.808,-0.641,53.333,294980.000,1.000
2.317,-8.982,0.763,5.641,2.851,2.295,8.147,5.210,-0.009,0.951,-0.357,1.099,2.716,-0.610,53.333,294981.000,1.000
-1.740,0.916,3.077,-0.176,0.137,1.675,2.003,4.302,-0.009,0.951,-0.358,0.977,2.747,-0.488,53.333,294982.000,1.000
-8.577,3.989,-0.479,-8.738,-6.072,-3.380,-6.342,-0.745,-0.009,0.950,-0.357,0.977,2.747,-0.519,53.333,294983.000,1.000
-9.019,-2.922,-4.357,-7.642,-5.991,-5.119,-4.339,-3.182,-0.009,0.950,-0.356,0.854,2.563,-0.427,53.333,294984.000,1.000
-2.708,-9.188,-2.768,2.196,1.169,-0.618,5.877,-0.119,-0.007,0.948,-0.358,0.824,2.502,-0.427,53.333,294985.000,1.000
1.610,-5.294,2.336,7.729,6.049,4.116,10.292,3.383,-0.008,0.948,-0.357,0.885,2.563,-0.458,53.333,294986.000,1.000
-1.534,4.034,4.168,1.971,2.254,2.591,2.524,1.469,-0.008,0.945,-0.358,0.824,2.686,-0.214,53.333,294987.000,1.000
-6.618,6.545,0.661,-6.223,-4.595,-2.992,-7.079,-4.179,-0.009,0.944,-0.357,0.732,2.686,-0.214,53.333,294988.000,1.000
-4.885,-0.466,-2.702,-4.469,-4.535,-4.638,-5.465,-6.537,-0.008,0.941,-0.358,0.702,2.686,-0.214,53.333,294989.000,1.000
3.052,-6.509,-0.738,5.722,2.811,0.338,5.164,-3.041,-0.006,0.943,-0.357,0.610,2.625,-0.244,53.333,294990.000,1.000
7.308,-2.749,3.825,10.528,7.334,5.264,10.156,0.556,-0.006,0.945,-0.357,0.641,2.533,-0.183,53.333,294991.000,1.000
1.881,5.512,3.835,2.540,2.144,2.994,2.317,-2.126,-0.005,0.944,-0.358,0.641,2.441,-0.183,53.333,294992.000,1.000
-6.940,6.277,-2.222,-8.848,-6.760,-4.227,-8.271,-9.196,-0.004,0.943,-0.357,0.671,2.502,-0.305,53.333,294993.000,1.000
-8.721,-2.223,-7.664,-9.882,-8.378,-7.650,-8.097,-12.781,-0.004,0.943,-0.356,0.824,2.716,-0.244,53.333,294994.000,1.000
-2.710,-8.815,-6.454,-0.935,-1.587,-3.901,1.213,-9.636,-0.002,0.944,-0.356,0.763,2.747,-0.305,53.333,294995.000,1.000
1.603,-4.725,-1.302,4.381,3.485,0.558,5.307,-5.428,-0.003,0.942,-0.357,0.732,2.747,-0.275,53.333,294996.000,1.000
-2.159,4.239,0.151,-1.782,-0.526,-1.432,-2.795,-6.786,-0.003,0.941,-0.355,0.763,2.777,-0.214,53.333,294997.000,1.000
-8.575,5.515,-4.265,-10.777,-8.250,-7.755,-12.841,-12.200,-0.001,0.940,-0.354,0.793,2.716,-0.336,53.333,294998.000,1.000
-8.278,-3.121,-8.517,-9.710,-9.299,-10.009,-11.438,-14.300,-0.004,0.943,-0.355,0.824,2.716,-0.336,53.333,294999.000,1.000
-1.186,-10.536,-6.829,0.486,-2.730,-5.160,-0.513,-10.163,-0.003,0.943,-0.355,0.916,2.747,-0.427,53.333,295000.000,1.000
3.314,-7.431,-1.587,6.273,1.815,0.336,5.442,-5.344,-0.003,0.943,-0.355,0.946,2.655,-0.549,53.333,295001.000,1.000
-0.652,1.027,0.053,0.165,-2.340,-0.555,-0.641,-6.242,-0.003,0.942,-0.356,0.916,2.747,-0.641,53.333,295002.000,1.000
-7.387,2.377,-4.000,-9.073,-9.633,-5.954,-8.933,-11.426,-0.004,0.945,-0.357,0.885,2.777,-0.763,53.333,295003.000,1.000
-7.599,-5.990,-8.033,-8.648,-10.040,-7.960,-6.686,-13.762,-0.004,0.945,-0.357,0.885,2.869,-0.702,53.333,295004.000,1.000
-1.302,-13.195,-6.584,0.579,-3.056,-3.725,3.842,-10.325,-0.004,0.945,-0.355,0.824,2.777,-0.793,53.333,295005.000,1.000
2.179,-9.838,-2.101,5.288,1.466,0.576,8.318,-6.458,-0.006,0.946,-0.352,0.885,2.716,-0.793,53.333,295006.000,1.000
-2.800,-0.906,-1.521,-1.799,-3.105,-1.618,0.134,-8.316,-0.007,0.946,-0.353,0.885,2.594,-0.824,53.333,295007.000,1.000
-10.104,1.265,-6.379,-11.585,-10.839,-7.908,-10.190,-14.115,-0.004,0.946,-0.355,0.732,2.686,-0.824,53.333,295008.000,1.000
-9.965,-5.894,-10.287,-10.866,-11.191,-9.966,-9.110,-16.284,-0.004,0.945,-0.353,0.732,2.747,-0.885,53.333,295009.000,1.000
-2.331,-11.732,-7.488,-0.457,-3.470,-4.954,1.528,-11.747,-0.005,0.944,-0.355,0.641,2.716,-0.916,53.333,295010.000,1.000
3.027,-7.305,-0.800,5.878,2.135,0.476,7.116,-6.188,-0.003,0.946,-0.357,0.732,2.655,-0.885,53.333,295011.000,1.000
-0.150,2.108,2.078,0.286,-1.503,-0.764,0.357,-6.378,-0.004,0.946,-0.353,0.671,2.808,-1.007,53.333,295012.000,1.000
-6.180,4.305,-1.100,-8.542,-8.663,-6.490,-8.855,-11.067,-0.006,0.946,-0.354,0.610,2.777,-0.946,53.333,295013.000,1.000
-5.432,-2.858,-4.314,-7.547,-8.600,-8.217,-7.261,-12.938,-0.005,0.946,-0.353,0.549,2.716,-0.854,53.333,295014.000,1.000
2.355,-8.307,-1.719,2.619,-0.194,-2.734,3.459,-8.783,-0.004,0.945,-0.355,0.488,2.716,-0.793,53.333,295015.000,1.000
7.749,-2.899,4.329,8.616,6.691,3.631,9.150,-3.814,-0.004,0.946,-0.351,0.488,2.655,-0.824,53.333,295016.000,1.000
4.647,7.955,6.679,2.981,4.831,3.834,2.899,-4.273,-0.004,0.946,-0.353,0.458,2.716,-0.793,53.333,295017.000,1.000
-1.301,11.658,3.433,-5.458,-0.566,-0.218,-5.352,-8.655,-0.006,0.947,-0.354,0.336,2.625,-0.732,53.333,295018.000,1.000
-0.525,5.597,0.633,-3.771,0.609,-0.544,-2.641,-9.769,-0.006,0.947,-0.350,0.305,2.594,-0.671,53.333,295019.000,1.000
7.044,0.319,3.687,6.985,8.884,5.414,8.768,-4.964,-0.006,0.947,-0.354,0.305,2.625,-0.732,53.333,295020.000,1.000
11.573,4.445,9.481,12.888,14.028,10.779,14.152,-0.202,-0.007,0.947,-0.351,0.275,2.747,-0.702,53.333,295021.000,1.000
6.809,12.576,10.482,6.266,9.175,8.662,6.614,-1.916,-0.006,0.944,-0.348,0.244,2.747,-0.641,53.333,295022.000,1.000
-1.150,12.953,5.285,-3.543,0.706,1.996,-3.149,-7.838,-0.007,0.946,-0.352,0.244,2.686,-0.549,53.333,295023.000,1.000
-2.044,4.112,0.920,-2.798,-0.028,-0.058,-1.288,-9.694,-0.007,0.947,-0.355,0.214,2.747,-0.519,53.333,295024.000,1.000
4.666,-2.609,3.576,7.977,8.102,5.628,10.325,-4.213,-0.008,0.947,-0.352,0.244,2.594,-0.458,53.333,295025.000,1.000
9.253,1.551,10.284,14.887,14.630,11.924,16.697,2.510,-0.007,0.949,-0.352,0.244,2.472,-0.427,53.333,295026.000,1.000
5.126,10.592,12.832,9.695,11.712,11.000,10.149,3.183,-0.008,0.949,-0.352,0.336,2.533,-0.336,53.333,295027.000,1.000
-2.193,11.836,8.724,0.829,4.556,4.782,0.650,-1.045,-0.007,0.947,-0.353,0.275,2.502,-0.366,53.333,295028.000,1.000
-2.653,3.409,4.377,1.440,4.028,2.221,2.020,-2.515,-0.006,0.944,-0.351,0.183,2.563,-0.275,53.333,295029.000,1.000
4.618,-2.993,6.232,11.149,11.669,7.154,13.001,2.231,-0.007,0.945,-0.355,0.153,2.655,-0.275,53.333,295030.000,1.000
10.234,1.915,11.958,16.668,17.726,13.335,19.238,7.732,-0.006,0.944,-0.352,0.305,2.655,-0.183,53.333,295031.000,1.000
7.506,12.230,13.816,10.334,14.751,13.303,13.277,7.289,-0.005,0.946,-0.352,0.275,2.594,-0.061,53.333,295032.000,1.000
1.517,14.934,9.430,0.843,7.830,8.641,4.746,2.249,-0.005,0.945,-0.352,0.305,2.686,-0.061,53.333,295033.000,1.000
1.800,7.595,4.999,1.264,7.261,7.358,6.639,0.034,-0.004,0.944,-0.349,0.275,2.716,-0.214,53.333,295034.000,1.000
8.873,1.432,6.618,10.929,14.013,12.283,16.880,3.788,-0.004,0.945,-0.350,0.336,2.777,-0.153,53.333,295035.000,1.000
13.476,5.735,11.899,16.338,18.311,16.874,20.941,8.076,-0.005,0.945,-0.351,0.366,2.686,-0.092,53.333,295036.000,1.000
9.482,15.115,13.391,9.775,13.246,14.280,11.892,6.467,-0.002,0.943,-0.347,0.336,2.808,-0.031,53.333,295037.000,1.000
2.419,16.990,8.905,-0.140,4.458,6.984,0.121,0.439,-0.004,0.942,-0.350,0.397,2.838,-0.122,53.333,295038.000,1.000
1.853,8.946,4.489,-0.422,2.518,3.713,-0.691,-2.641,-0.003,0.944,-0.348,0.397,2.716,-0.214,53.333,295039.000,1.000
8.225,2.059,6.006,8.345,8.503,7.747,7.957,0.320,-0.003,0.944,-0.349,0.519,2.808,-0.244,53.333,295040.000,1.000
12.346,5.632,10.990,12.916,12.646,12.609,11.838,3.896,-0.002,0.944,-0.352,0.641,2.899,-0.183,53.333,295041.000,1.000
8.266,14.536,12.136,5.943,8.041,11.123,3.976,1.828,-0.002,0.943,-0.351,0.671,2.930,-0.244,53.333,295042.000,1.000
1.661,16.560,7.537,-3.579,0.386,5.343,-5.517,-4.010,-0.002,0.942,-0.352,0.732,2.930,-0.214,53.333,295043.000,1.000
1.941,9.314,3.334,-2.677,0.132,3.551,-3.449,-5.961,-0.003,0.943,-0.352,0.793,2.930,-0.366,53.333,295044.000,1.000
9.021,3.285,5.129,7.555,7.900,8.577,8.021,-1.031,-0.003,0.943,-0.350,1.038,3.021,-0.366,53.333,295045.000,1.000
13.270,7.019,10.179,13.390,13.447,13.719,14.132,5.038,-0.002,0.944,-0.349,0.977,3.052,-0.397,53.333,295046.000,1.000
8.737,15.053,11.127,7.349,9.620,11.860,7.649,5.579,-0.001,0.942,-0.352,0.977,3.113,-0.397,53.333,295047.000,1.000
1.387,15.427,6.177,-1.539,2.125,5.254,-1.345,1.963,-0.001,0.942,-0.351,0.977,3.082,-0.519,53.333,295048.000,1.000
1.000,6.470,1.711,-0.215,1.710,2.542,0.571,1.453,-0.002,0.943,-0.347,1.068,3.082,-0.519,53.333,295049.000,1.000
7.809,-0.457,3.618,10.337,9.450,7.028,11.642,6.916,0.000,0.945,-0.352,1.068,3.174,-0.641,53.333,295050.000,1.000
12.284,3.728,9.247,16.389,15.389,12.344,17.424,12.670,-0.002,0.946,-0.354,1.221,3.174,-0.549,53.333,295051.000,1.000
8.303,13.404,11.051,10.308,12.302,11.397,10.768,12.204,-0.001,0.946,-0.353,1.221,3.235,-0.610,53.333,295052.000,1.000
1.431,15.778,6.786,0.884,5.455,6.104,1.587,7.031,-0.001,0.946,-0.352,1.251,3.296,-0.763,53.333,295053.000,1.000
0.939,8.060,2.252,0.999,4.964,4.502,3.014,4.536,-0.004,0.946,-0.350,1.373,3.235,-0.671,53.333,295054.000,1.000
6.718,0.858,2.956,9.753,11.461,9.322,13.106,7.824,-0.006,0.944,-0.354,1.251,3.204,-0.732,53.333,295055.000,1.000
9.279,3.207,6.355,13.736,14.970,13.887,17.376,11.498,-0.005,0.946,-0.352,1.343,3.143,-0.671,53.333,295056.000,1.000
2.908,10.032,5.454,5.679,8.657,11.109,8.699,9.177,-0.004,0.945,-0.353,1.343,3.204,-0.732,53.333,295057.000,1.000
-6.107,9.485,-1.157,-5.242,-1.454,3.303,-2.845,2.416,-0.004,0.945,-0.353,1.343,3.143,-0.824,53.333,295058.000,1.000
-7.621,-0.026,-6.804,-5.686,-4.232,-0.707,-3.694,-1.281,-0.007,0.945,-0.351,1.221,3.082,-0.854,53.333,295059.000,1.000
-1.131,-6.936,-5.429,3.813,1.847,2.726,4.862,1.373,-0.004,0.945,-0.349,1.160,3.174,-0.793,53.333,295060.000,1.000
3.856,-2.080,0.322,9.806,7.120,7.524,8.971,5.165,-0.005,0.944,-0.350,1.068,3.143,-0.854,53.333,295061.000,1.000
1.012,8.662,2.767,4.456,4.321,6.570,1.771,3.859,-0.004,0.945,-0.354,1.068,3.052,-0.916,53.333,295062.000,1.000
-4.291,12.146,-0.409,-3.919,-1.509,1.573,-6.979,-1.027,-0.006,0.946,-0.354,1.068,3.113,-0.763,53.333,295063.000,1.000
-2.800,5.552,-3.308,-2.758,-0.465,0.487,-4.590,-2.365,-0.005,0.945,-0.351,1.099,3.021,-0.793,53.333,295064.000,1.000
5.428,-0.239,-0.304,7.032,7.932,6.168,6.589,2.514,-0.004,0.944,-0.350,1.068,2.930,-0.732,53.333,295065.000,1.000
10.851,4.130,6.014,12.286,13.672,12.160,12.095,7.967,-0.006,0.944,-0.351,1.099,2.808,-0.763,53.333,295066.000,1.000
7.519,13.704,8.361,6.014,9.948,11.524,5.210,7.771,-0.006,0.945,-0.351,1.129,2.777,-0.793,53.333,295067.000,1.000
1.249,16.273,4.784,-2.616,2.603,6.394,-3.771,3.712,-0.006,0.945,-0.352,1.221,2.777,-0.732,53.333,295068.000,1.000
1.636,9.343,1.380,-0.636,2.281,5.053,-1.637,3.179,-0.007,0.945,-0.352,1.221,2.716,-0.763,53.333,295069.000,1.000
8.839,3.478,3.861,10.878,9.932,10.436,9.580,8.972,-0.006,0.944,-0.352,1.312,2.716,-0.732,53.333,295070.000,1.000
13.288,7.346,9.475,17.968,15.458,15.836,15.266,15.216,-0.005,0.944,-0.353,1.251,2.625,-0.671,53.333,295071.000,1.000
8.793,15.373,10.576,12.514,11.433,13.909,8.128,15.088,-0.004,0.943,-0.355,1.251,2.625,-0.702,53.333,295072.000,1.000
1.155,15.465,5.140,3.027,3.171,6.744,-1.858,9.964,-0.004,0.944,-0.352,1.312,2.533,-0.763,53.333,295073.000,1.000
0.450,6.169,-0.193,2.862,1.414,3.171,-1.069,7.546,-0.004,0.944,-0.353,1.251,2.502,-0.671,53.333,295074.000,1.000
7.432,-0.789,1.030,11.949,7.623,6.888,9.213,11.426,-0.006,0.944,-0.353,1.343,2.380,-0.671,53.333,295075.000,1.000
12.544,3.486,6.295,16.999,12.021,11.580,14.760,16.212,-0.005,0.946,-0.355,1.343,2.472,-0.702,53.333,295076.000,1.000
8.975,12.620,7.571,9.946,7.111,9.682,8.110,14.979,-0.003,0.945,-0.356,1.465,2.563,-0.671,53.333,295077.000,1.000
1.813,13.419,2.284,-0.832,-1.981,2.664,-1.249,8.782,-0.003,0.945,-0.355,1.434,2.472,-0.641,53.333,295078.000,1.000
0.674,3.628,-3.341,-2.143,-4.683,-1.308,-0.309,5.045,-0.004,0.945,-0.353,1.404,2.380,-0.732,53.333,295079.000,1.000
6.178,-5.214,-3.060,5.741,0.361,1.124,9.122,7.163,-0.003,0.945,-0.353,1.526,2.380,-0.763,53.333,295080.000,1.000
9.130,-3.595,0.801,9.627,3.545,3.866,12.718,9.904,-0.003,0.944,-0.351,1.434,2.411,-0.732,53.333,295081.000,1.000
3.484,3.180,0.761,1.921,-2.193,-0.042,3.399,6.863,-0.003,0.945,-0.353,1.434,2.380,-0.671,53.333,295082.000,1.000
-4.967,2.709,-5.217,-8.642,-11.388,-8.497,-8.723,-0.443,-0.002,0.947,-0.353,1.495,2.350,-0.702,53.333,295083.000,1.000
-6.271,-7.033,-10.642,-8.905,-13.378,-12.799,-9.916,-4.418,-0.005,0.945,-0.355,1.434,2.319,-0.702,53.333,295084.000,1.000
0.147,-14.633,-9.244,0.578,-6.850,-9.278,-1.305,-1.661,-0.006,0.946,-0.353,1.343,2.411,-0.702,53.333,295085.000,1.000
4.783,-10.877,-3.484,6.299,-1.508,-4.064,3.173,2.491,-0.004,0.946,-0.352,1.434,2.441,-0.885,53.333,295086.000,1.000
1.193,-1.423,-1.044,0.495,-4.506,-4.387,-3.496,1.528,-0.005,0.945,-0.351,1.343,2.441,-0.885,53.333,295087.000,1.000
-5.172,1.024,-4.232,-8.071,-10.481,-8.543,-11.401,-3.045,-0.006,0.943,-0.351,1.373,2.441,-0.824,53.333,295088.000,1.000
-4.717,-5.942,-7.087,-6.308,-9.159,-8.594,-7.546,-3.816,-0.006,0.943,-0.352,1.404,2.411,-0.763,53.333,295089.000,1.000
2.702,-11.516,-4.079,4.769,-0.055,-2.003,5.613,1.962,-0.006,0.944,-0.353,1.343,2.441,-0.885,53.333,295090.000,1.000
7.337,-7.009,1.837,11.027,6.307,4.211,12.846,8.093,-0.004,0.946,-0.353,1.373,2.411,-1.007,53.333,295091.000,1.000
2.915,1.895,3.043,4.388,2.527,2.758,6.549,7.535,-0.006,0.946,-0.352,1.282,2.411,-0.885,53.333,295092.000,1.000
-4.732,2.843,-2.333,-6.271,-5.673,-4.005,-3.237,1.744,-0.005,0.947,-0.352,1.251,2.289,-1.007,53.333,295093.000,1.000
-5.720,-6.217,-7.790,-7.469,-7.389,-7.287,-2.942,-1.574,-0.005,0.947,-0.350,1.312,2.350,-1.099,53.333,295094.000,1.000
0.340,-14.185,-7.221,0.472,-1.407,-3.774,5.898,0.929,-0.005,0.946,-0.350,1.251,2.350,-1.007,53.333,295095.000,1.000
4.108,-11.979,-2.951,4.452,2.504,0.151,9.234,4.010,-0.005,0.948,-0.353,1.251,2.350,-1.038,53.333,295096.000,1.000
-0.263,-4.783,-2.088,-2.671,-2.506,-2.440,0.476,1.639,-0.004,0.946,-0.353,1.251,2.380,-0.977,53.333,295097.000,1.000
-6.822,-4.420,-6.336,-11.822,-10.556,-9.151,-9.890,-4.178,-0.006,0.948,-0.354,1.251,2.380,-1.007,53.333,295098.000,1.000
-5.804,-12.394,-9.337,-10.040,-10.786,-11.212,-8.320,-5.762,-0.004,0.948,-0.354,1.190,2.472,-0.977,53.333,295099.000,1.000
2.955,-17.320,-5.357,1.591,-2.153,-5.345,3.326,-0.213,-0.007,0.949,-0.355,1.160,2.380,-1.068,53.333,295100.000,1.000
9.506,-10.651,2.478,9.079,4.976,1.608,10.193,6.339,-0.005,0.948,-0.356,1.221,2.441,-1.068,53.333,295101.000,1.000
7.010,1.054,5.905,4.312,2.719,1.718,4.449,6.686,-0.005,0.948,-0.355,1.160,2.472,-0.916,53.333,295102.000,1.000
0.635,4.486,2.332,-4.192,-3.986,-3.647,-4.522,1.952,-0.007,0.948,-0.355,1.129,2.533,-0.946,53.333,295103.000,1.000
-0.022,-2.746,-2.080,-3.392,-4.712,-6.230,-3.586,-0.359,-0.009,0.948,-0.353,1.099,2.350,-0.824,53.333,295104.000,1.000
5.638,-9.261,-1.177,6.019,1.766,-2.541,5.832,3.120,-0.007,0.948,-0.355,1.068,2.350,-0.824,53.333,295105.000,1.000
8.636,-5.577,2.838,10.595,5.890,1.552,10.022,7.165,-0.007,0.945,-0.354,0.977,2.350,-0.854,53.333,295106.000,1.000
3.426,3.326,3.021,3.027,0.995,-0.438,2.587,5.612,-0.007,0.946,-0.354,1.038,2.380,-0.824,53.333,295107.000,1.000
-3.870,5.451,-2.104,-7.392,-6.976,-5.999,-6.083,0.239,-0.008,0.947,-0.352,1.007,2.350,-0.916,53.333,295108.000,1.000
-3.712,-1.464,-6.176,-7.336,-7.445,-6.851,-2.954,-1.594,-0.006,0.947,-0.352,1.007,2.319,-0.793,53.333,295109.000,1.000
3.496,-7.022,-3.794,2.267,0.092,-0.673,9.265,2.716,-0.006,0.944,-0.354,0.793,2.319,-0.824,53.333,295110.000,1.000
7.597,-2.939,1.807,7.498,5.111,5.085,15.125,7.121,-0.008,0.943,-0.355,0.916,2.289,-0.824,53.333,295111.000,1.000
2.354,5.041,2.898,0.496,0.298,2.868,6.983,4.957,-0.005,0.944,-0.355,0.977,2.380,-0.824,53.333,295112.000,1.000
-6.104,4.805,-2.357,-9.882,-8.587,-4.987,-5.014,-2.035,-0.006,0.944,-0.355,0.885,2.228,-0.702,53.333,295113.000,1.000
-7.527,-5.197,-7.371,-10.290,-10.647,-9.461,-7.011,-5.997,-0.007,0.942,-0.354,0.916,2.441,-0.702,53.333,295114.000,1.000
-1.165,-13.181,-5.932,-1.102,-4.567,-6.800,-0.054,-3.420,-0.005,0.942,-0.354,0.977,2.289,-0.702,53.333,295115.000,1.000
3.733,-9.646,-0.387,4.422,0.015,-2.981,2.183,0.484,-0.005,0.944,-0.354,1.007,2.350,-0.549,53.333,295116.000,1.000
0.955,-0.062,1.891,-1.307,-3.849,-4.858,-6.941,-0.662,-0.006,0.943,-0.354,1.099,2.289,-0.610,53.333,295117.000,1.000
-4.195,2.827,-1.194,-9.652,-10.693,-10.379,-17.377,-5.442,-0.007,0.941,-0.355,1.129,2.411,-0.458,53.333,295118.000,1.000
-2.613,-3.604,-3.674,-7.850,-10.266,-11.458,-16.165,-6.694,-0.007,0.942,-0.352,1.282,2.502,-0.458,53.333,295119.000,1.000
5.461,-8.733,-0.124,2.982,-1.987,-5.489,-5.600,-1.734,-0.007,0.943,-0.350,1.190,2.472,-0.397,53.333,295120.000,1.000
10.274,-3.904,6.305,8.979,3.847,0.545,-0.491,3.488,-0.005,0.943,-0.350,1.190,2.533,-0.427,53.333,295121.000,1.000
5.753,5.246,7.743,2.365,-0.080,-0.725,-8.051,2.255,-0.006,0.946,-0.354,1.160,2.533,-0.397,53.333,295122.000,1.000
-2.107,6.474,2.181,-7.987,-8.202,-7.141,-18.108,-3.797,-0.006,0.945,-0.354,1.190,2.655,-0.427,53.333,295123.000,1.000
-3.217,-1.984,-3.639,-8.745,-9.723,-10.015,-17.143,-6.834,-0.005,0.946,-0.354,1.221,2.563,-0.275,53.333,295124.000,1.000
3.149,-8.628,-3.030,-0.207,-3.265,-5.903,-6.827,-3.345,-0.003,0.947,-0.355,1.099,2.502,-0.305,53.333,295125.000,1.000
7.792,-4.375,2.049,4.535,1.551,-1.043,-1.513,1.337,-0.003,0.944,-0.354,1.099,2.625,-0.427,53.333,295126.000,1.000
4.525,4.904,4.215,-1.914,-2.303,-2.488,-8.260,0.630,-0.004,0.946,-0.352,1.068,2.747,-0.366,53.333,295127.000,1.000
-1.325,6.392,1.061,-10.775,-9.393,-8.254,-17.056,-4.147,-0.001,0.945,-0.355,1.099,2.838,-0.244,53.333,295128.000,1.000
-0.614,-2.222,-1.790,-9.247,-9.436,-10.150,-14.765,-5.763,-0.001,0.939,-0.353,1.160,3.052,-0.244,53.333,295129.000,1.000
6.456,-9.843,0.910,1.482,-1.864,-5.353,-3.547,-1.390,-0.001,0.941,-0.354,1.251,3.082,-0.244,53.333,295130.000,1.000
10.211,-7.339,6.147,7.511,3.062,-0.580,1.863,3.250,-0.001,0.942,-0.353,1.343,3.052,-0.244,53.333,295131.000,1.000
4.836,0.183,6.540,1.240,-1.667,-2.891,-5.618,1.825,-0.002,0.943,-0.357,1.312,3.082,-0.244,53.333,295132.000,1.000
-3.265,0.923,0.673,-8.113,-10.034,-9.821,-15.621,-3.668,-0.003,0.940,-0.356,1.312,3.265,-0.366,53.333,295133.000,1.000
-3.833,-6.899,-4.578,-7.134,-11.101,-12.545,-14.469,-5.482,-0.001,0.939,-0.356,1.434,3.265,-0.427,53.333,295134.000,1.000
3.473,-12.349,-3.079,3.382,-3.851,-7.761,-3.781,-0.700,-0.001,0.940,-0.355,1.587,3.326,-0.458,53.333,295135.000,1.000
8.695,-6.948,2.391,9.520,1.551,-2.031,1.960,4.649,-0.003,0.938,-0.355,1.587,3.387,-0.458,53.333,295136.000,1.000
5.023,3.234,3.951,3.233,-2.323,-2.757,-4.653,3.590,-0.003,0.938,-0.356,1.709,3.418,-0.641,53.333,295137.000,1.000
-2.268,5.561,-0.701,-6.837,-10.074,-8.122,-13.898,-2.504,0.000,0.938,-0.355,1.709,3.387,-0.641,53.333,295138.000,1.000
-3.430,-1.972,-5.285,-7.430,-10.956,-9.734,-12.509,-5.924,-0.003,0.938,-0.356,1.831,3.357,-0.671,53.333,295139.000,1.000
2.290,-8.057,-3.685,1.067,-3.633,-4.323,-2.104,-3.185,-0.003,0.942,-0.355,1.984,3.387,-0.732,53.333,295140.000,1.000
5.985,-3.621,1.730,5.444,2.187,1.769,3.151,0.483,-0.004,0.946,-0.356,2.075,3.448,-0.977,53.333,295141.000,1.000
1.900,5.774,3.574,-1.722,-0.664,1.452,-3.697,-1.229,-0.005,0.947,-0.357,2.075,3.448,-1.129,53.333,295142.000,1.000
-4.379,7.578,-0.375,-11.688,-7.063,-3.439,-12.804,-6.785,-0.004,0.949,-0.359,2.075,3.357,-1.129,53.333,295143.000,1.000
-3.787,-0.603,-4.356,-11.742,-7.147,-5.060,-11.410,-9.002,-0.006,0.949,-0.356,1.923,3.418,-1.312,53.333,295144.000,1.000
3.253,-7.847,-2.918,-2.931,-0.441,-0.793,-1.799,-5.160,-0.009,0.951,-0.354,1.770,3.540,-1.343,53.333,295145.000,1.000
6.971,-4.982,1.332,1.317,3.244,2.984,1.807,-0.915,-0.005,0.950,-0.357,1.648,3.448,-1.312,53.333,295146.000,1.000
1.589,3.038,1.417,-6.123,-2.398,-0.019,-6.747,-2.451,-0.005,0.953,-0.357,1.465,3.265,-1.465,53.333,295147.000,1.000
-6.573,4.439,-4.046,-15.987,-10.892,-6.732,-16.456,-7.791,-0.008,0.953,-0.352,1.434,3.235,-1.587,53.333,295148.000,1.000
-7.550,-2.735,-8.588,-15.209,-11.342,-8.387,-13.847,-9.379,-0.006,0.953,-0.355,1.343,3.113,-1.526,53.333,295149.000,1.000
-1.172,-7.699,-6.537,-4.896,-3.116,-2.269,-1.383,-4.437,-0.006,0.952,-0.355,1.221,3.113,-1.465,53.333,295150.000,1.000
2.925,-1.872,-0.750,1.081,3.295,4.477,5.705,1.112,-0.008,0.951,-0.354,1.160,3.082,-1.404,53.333,295151.000,1.000
-1.381,8.878,1.218,-5.015,0.424,4.270,-0.148,0.533,-0.007,0.949,-0.355,1.129,3.082,-1.373,53.333,295152.000,1.000
-8.379,11.712,-2.701,-14.376,-6.352,-1.068,-9.042,-4.767,-0.008,0.948,-0.357,1.068,2.960,-1.312,53.333,295153.000,1.000
-8.503,3.946,-6.455,-13.958,-6.646,-3.367,-7.720,-7.417,-0.009,0.948,-0.356,0.916,2.899,-1.190,53.333,295154.000,1.000
-1.568,-3.541,-4.372,-4.484,0.401,0.394,2.021,-4.282,-0.010,0.946,-0.355,0.977,2.869,-1.190,53.333,295155.000,1.000
2.994,-1.253,0.949,0.685,4.969,4.064,5.996,-0.625,-0.010,0.947,-0.354,0.885,2.899,-1.160,53.333,295156.000,1.000
-0.864,6.201,2.205,-5.785,0.298,1.196,-2.454,-2.510,-0.008,0.947,-0.355,0.763,2.869,-0.946,53.333,295157.000,1.000
-7.543,7.011,-2.517,-14.895,-7.757,-5.622,-12.972,-8.050,-0.007,0.946,-0.356,0.763,2.808,-0.854,53.333,295158.000,1.000
-7.725,-1.143,-7.147,-13.739,-8.701,-8.102,-12.391,-9.809,-0.008,0.946,-0.355,0.763,2.777,-0.885,53.333,295159.000,1.000
-1.528,-7.918,-6.149,-3.532,-1.970,-3.783,-3.028,-5.160,-0.009,0.945,-0.355,0.732,2.747,-0.763,53.333,295160.000,1.000
1.494,-4.899,-2.241,1.846,2.146,0.316,0.397,-0.154,-0.010,0.943,-0.353,0.793,2.716,-0.610,53.333,295161.000,1.000
-4.366,2.532,-2.504,-5.138,-3.328,-2.817,-8.905,-1.410,-0.012,0.943,-0.354,0.793,2.716,-0.610,53.333,295162.000,1.000
-12.742,2.726,-8.222,-15.258,-12.268,-10.413,-20.201,-7.092,-0.012,0.942,-0.355,0.763,2.686,-0.580,53.333,295163.000,1.000
-13.367,-5.594,-12.475,-14.916,-13.404,-13.209,-19.546,-9.232,-0.009,0.942,-0.352,0.763,2.441,-0.427,53.333,295164.000,1.000
-5.577,-10.868,-9.041,-4.372,-5.228,-7.505,-8.464,-4.280,-0.011,0.942,-0.350,0.671,2.380,-0.366,53.333,295165.000,1.000
1.127,-4.316,-0.692,3.014,2.403,0.228,-1.446,2.366,-0.010,0.942,-0.350,0.702,2.380,-0.397,53.333,295166.000,1.000
0.074,7.776,4.423,-0.665,1.951,2.346,-5.677,3.918,-0.008,0.942,-0.350,0.641,2.289,-0.275,53.333,295167.000,1.000
-4.005,12.105,3.325,-7.255,-1.831,0.097,-11.114,1.304,-0.009,0.940,-0.351,0.610,2.228,-0.244,53.333,295168.000,1.000
-2.492,5.846,1.275,-4.512,0.634,0.951,-4.745,1.225,-0.007,0.942,-0.352,0.641,2.167,-0.153,53.333,295169.000,1.000
4.321,-0.167,3.538,6.183,9.520,7.292,10.758,6.121,-0.008,0.943,-0.351,0.610,2.136,-0.092,53.333,295170.000,1.000
7.268,3.303,7.655,11.301,14.703,12.545,19.874,10.299,-0.005,0.943,-0.351,0.641,2.136,-0.153,53.333,295171.000,1.000
1.384,11.413,7.162,4.068,9.726,10.322,14.621,7.874,-0.003,0.944,-0.350,0.671,2.197,-0.122,53.333,295172.000,1.000
-6.226,12.674,1.472,-5.524,1.297,3.881,4.691,1.524,-0.004,0.947,-0.350,0.610,2.167,-0.153,53.333,295173.000,1.000
-5.229,5.484,-2.324,-3.920,0.731,2.346,3.907,-0.463,-0.004,0.945,-0.350,0.458,2.228,-0.183,53.333,295174.000,1.000
4.038,0.518,1.217,7.437,8.692,8.428,11.735,4.739,-0.004,0.942,-0.351,0.488,2.197,-0.122,53.333,295175.000,1.000
10.753,5.705,8.169,13.802,14.211,14.501,15.082,10.469,-0.002,0.944,-0.352,0.519,2.289,-0.305,53.333,295176.000,1.000
7.835,14.776,9.960,6.935,9.474,12.600,7.584,9.318,-0.001,0.944,-0.351,0.519,2.380,-0.153,53.333,295177.000,1.000
0.947,15.449,4.431,-3.979,0.176,4.848,-0.754,2.838,0.001,0.945,-0.351,0.580,2.411,-0.244,53.333,295178.000,1.000
0.231,6.160,-1.593,-5.028,-2.536,0.239,2.675,-0.869,-0.001,0.945,-0.352,0.488,2.533,-0.244,53.333,295179.000,1.000
6.360,-1.582,-1.551,3.646,2.777,2.424,15.023,1.845,-0.001,0.944,-0.351,0.580,2.625,-0.305,53.333,295180.000,1.000
9.993,1.367,2.376,8.621,6.388,5.284,21.117,5.616,-0.001,0.944,-0.351,0.549,2.655,-0.427,53.333,295181.000,1.000
5.056,9.530,2.860,2.079,1.319,2.068,13.807,3.906,0.000,0.947,-0.352,0.549,2.808,-0.397,53.333,295182.000,1.000
-2.686,10.514,-2.161,-7.412,-6.781,-4.868,3.578,-1.827,0.000,0.945,-0.354,0.488,2.838,-0.519,53.333,295183.000,1.000
-3.591,2.064,-6.668,-6.966,-7.421,-7.208,4.166,-4.207,-0.001,0.942,-0.352,0.488,2.930,-0.580,53.333,295184.000,1.000
2.475,-4.992,-5.058,2.570,0.098,-2.338,13.905,-0.279,0.000,0.944,-0.353,0.519,3.021,-0.610,53.333,295185.000,1.000
5.874,-1.916,-0.073,7.653,5.469,2.663,18.334,4.263,0.000,0.946,-0.352,0.549,3.113,-0.641,53.333,295186.000,1.000
0.443,5.737,0.844,0.720,1.354,0.413,10.361,2.821,-0.001,0.947,-0.354,0.519,3.113,-0.671,53.333,295187.000,1.000
-7.949,5.971,-4.121,-9.277,-6.557,-6.654,0.235,-2.980,0.000,0.946,-0.352,0.549,3.113,-0.793,53.333,295188.000,1.000
-9.260,-2.584,-8.361,-9.046,-7.197,-9.263,1.664,-5.362,-0.002,0.945,-0.352,0.610,3.174,-0.763,53.333,295189.000,1.000
-2.950,-8.258,-5.727,0.726,0.809,-3.610,13.043,-1.064,-0.004,0.946,-0.350,0.580,3.204,-0.763,53.333,295190.000,1.000
1.352,-2.245,0.983,6.219,7.303,3.656,19.619,4.115,-0.004,0.947,-0.351,0.549,3.265,-0.793,53.333,295191.000,1.000
-2.780,9.087,3.786,-0.420,4.597,4.607,13.722,3.315,-0.003,0.948,-0.354,0.610,3.204,-0.916,53.333,295192.000,1.000
-9.741,12.400,0.268,-10.179,-2.129,0.572,5.049,-1.952,-0.006,0.948,-0.351,0.641,3.204,-0.885,53.333,295193.000,1.000
-9.904,4.905,-3.547,-9.659,-2.453,-0.509,6.749,-4.079,-0.007,0.949,-0.354,0.641,3.235,-0.885,53.333,295194.000,1.000
-3.121,-2.453,-1.843,0.441,4.501,4.224,16.820,0.018,-0.006,0.948,-0.353,0.732,3.296,-0.854,53.333,295195.000,1.000
1.131,-0.163,2.973,6.440,8.822,8.370,20.788,4.696,-0.006,0.949,-0.352,0.763,3.235,-0.946,53.333,295196.000,1.000
-3.081,7.150,3.750,0.541,3.676,5.284,11.861,3.395,-0.008,0.948,-0.351,0.732,3.235,-0.854,53.333,295197.000,1.000
-10.030,7.640,-1.425,-8.715,-5.083,-2.435,0.512,-2.423,-0.009,0.947,-0.350,0.763,3.174,-0.854,53.333,295198.000,1.000
-10.350,-1.019,-6.497,-8.554,-6.836,-6.156,0.250,-5.405,-0.007,0.945,-0.351,0.763,3.052,-0.946,53.333,295199.000,1.000
-4.029,-8.244,-5.716,0.291,-0.660,-2.703,9.273,-2.423,-0.007,0.943,-0.348,0.824,3.082,-0.946,53.333,295200.000,1.000
-0.426,-5.228,-1.503,4.743,3.628,1.622,13.314,1.321,-0.008,0.942,-0.347,0.946,3.113,-0.763,53.333,295201.000,1.000
-5.187,2.750,-0.951,-2.172,-0.758,-0.019,5.638,-0.171,-0.008,0.940,-0.348,1.038,3.021,-0.732,53.333,295202.000,1.000
-12.131,3.626,-5.802,-11.232,-8.087,-5.484,-3.575,-5.108,-0.009,0.942,-0.350,1.099,2.991,-0.580,53.333,295203.000,1.000
-11.475,-4.655,-9.875,-9.471,-8.081,-6.758,-1.440,-6.309,-0.008,0.940,-0.348,1.190,2.930,-0.610,53.333,295204.000,1.000
-3.182,-11.136,-7.553,1.865,-0.298,-1.331,9.532,-1.277,-0.008,0.939,-0.352,1.343,2.930,-0.610,53.333,295205.000,1.000
2.951,-6.986,-1.640,8.617,5.010,3.992,14.563,4.028,-0.008,0.941,-0.352,1.495,2.716,-0.458,53.333,295206.000,1.000
0.517,2.084,0.282,2.616,0.836,2.234,6.743,3.035,-0.007,0.938,-0.352,1.556,2.808,-0.549,53.333,295207.000,1.000
-5.132,3.436,-3.953,-7.564,-7.041,-4.204,-3.589,-2.619,-0.004,0.937,-0.353,1.648,2.777,-0.488,53.333,295208.000,1.000
-4.774,-5.272,-8.334,-8.642,-8.058,-6.809,-3.153,-5.416,-0.004,0.938,-0.356,1.801,2.777,-0.427,53.333,295209.000,1.000
1.567,-12.973,-7.101,-0.779,-1.375,-2.613,5.983,-2.264,-0.005,0.938,-0.352,1.923,2.686,-0.427,53.333,295210.000,1.000
4.518,-10.470,-2.672,3.185,3.072,1.816,9.376,1.386,-0.007,0.939,-0.349,2.045,2.808,-0.397,53.333,295211.000,1.000
-1.592,-3.108,-2.175,-3.930,-1.666,-0.489,0.262,-0.781,-0.005,0.942,-0.353,2.045,2.625,-0.366,53.333,295212.000,1.000
-10.507,-3.295,-7.299,-13.254,-9.852,-7.167,-10.891,-6.997,-0.008,0.942,-0.353,2.136,2.686,-0.488,53.333,295213.000,1.000
-11.994,-13.052,-11.493,-11.838,-10.673,-9.505,-10.403,-9.477,-0.007,0.941,-0.354,2.136,2.625,-0.488,53.333,295214.000,1.000
-5.306,-20.748,-8.628,-0.549,-2.839,-4.161,0.157,-4.858,-0.010,0.942,-0.354,2.167,2.594,-0.610,53.333,295215.000,1.000
0.159,-16.730,-1.374,6.873,3.783,2.385,6.350,1.234,-0.010,0.944,-0.351,2.258,2.472,-0.610,53.333,295216.000,1.000
-2.148,-6.304,2.303,2.437,1.721,2.726,0.761,1.818,-0.009,0.944,-0.353,2.228,2.380,-0.793,53.333,295217.000,1.000
-7.192,-2.221,-0.212,-5.438,-4.060,-1.493,-7.064,-2.121,-0.007,0.944,-0.353,2.136,2.289,-0.946,53.333,295218.000,1.000
-5.824,-7.241,-2.998,-3.885,-3.418,-2.221,-4.270,-3.392,-0.006,0.946,-0.356,2.136,2.319,-0.885,53.333,295219.000,1.000
1.961,-10.976,-0.224,6.309,4.504,3.445,7.032,1.082,-0.007,0.945,-0.355,2.106,2.319,-0.916,53.333,295220.000,1.000
6.498,-5.212,5.428,11.590,9.777,8.891,12.295,5.773,-0.005,0.948,-0.355,2.075,2.319,-1.007,53.333,295221.000,1.000
1.609,3.978,6.344,4.389,5.380,7.048,4.542,4.171,-0.003,0.946,-0.353,2.045,2.441,-1.099,53.333,295222.000,1.000
-6.734,4.366,0.576,-6.214,-2.909,0.330,-5.850,-2.068,-0.004,0.947,-0.358,2.045,2.411,-1.160,53.333,295223.000,1.000
-8.329,-5.302,-5.260,-6.741,-4.304,-2.451,-5.271,-5.212,-0.001,0.946,-0.354,2.014,2.380,-1.190,53.333,295224.000,1.000
-2.449,-12.984,-4.795,2.380,2.244,1.967,4.499,-1.944,-0.003,0.947,-0.359,2.014,2.533,-1.221,53.333,295225.000,1.000
1.631,-9.201,-0.233,7.789,6.816,7.023,8.953,2.291,-0.003,0.947,-0.360,1.831,2.441,-1.129,53.333,295226.000,1.000
-2.146,0.503,1.181,2.018,2.483,5.549,1.077,1.067,-0.003,0.949,-0.360,1.770,2.594,-1.160,53.333,295227.000,1.000
-8.189,3.315,-2.630,-6.081,-5.064,-0.456,-8.971,-4.038,-0.001,0.948,-0.360,1.801,2.533,-1.160,53.333,295228.000,1.000
-7.249,-3.521,-5.849,-3.771,-5.457,-2.809,-8.003,-5.696,-0.002,0.949,-0.360,1.709,2.563,-1.190,53.333,295229.000,1.000
0.432,-9.352,-3.121,7.549,1.949,1.455,1.907,-1.113,-0.004,0.948,-0.358,1.556,2.686,-1.129,53.333,295230.000,1.000
5.175,-5.220,2.689,13.804,7.095,5.962,6.278,3.901,-0.005,0.948,-0.361,1.526,2.747,-0.946,53.333,295231.000,1.000
1.247,3.643,4.302,7.428,3.112,3.927,-1.676,2.846,-0.009,0.950,-0.359,1.465,2.838,-0.946,53.333,295232.000,1.000
-4.902,5.271,0.176,-2.175,-4.084,-2.206,-11.473,-2.472,-0.007,0.949,-0.358,1.465,2.869,-0.916,53.333,295233.000,1.000
-3.223,-2.250,-3.221,-1.470,-3.932,-4.013,-9.727,-4.404,-0.006,0.948,-0.358,1.373,2.777,-0.793,53.333,295234.000,1.000
6.235,-8.073,-0.243,8.768,4.115,1.182,1.346,0.030,-0.006,0.948,-0.357,1.312,2.899,-0.824,53.333,295235.000,1.000
13.455,-3.622,6.242,14.869,9.808,6.478,6.938,5.136,-0.008,0.947,-0.355,1.190,2.930,-0.793,53.333,295236.000,1.000
12.238,5.560,8.896,9.388,6.321,4.928,0.080,4.524,-0.010,0.947,-0.355,1.068,2.930,-0.732,53.333,295237.000,1.000
8.765,7.660,6.220,1.571,-0.104,-0.644,-8.642,0.095,-0.009,0.948,-0.356,1.068,2.930,-0.671,53.333,295238.000,1.000
13.335,1.285,4.935,4.833,1.566,-1.193,-5.545,-0.352,-0.009,0.949,-0.354,0.946,2.899,-0.488,53.333,295239.000,1.000
26.511,-2.241,10.920,18.353,12.103,6.284,7.306,6.236,-0.010,0.950,-0.356,0.763,2.747,-0.519,53.333,295240.000,1.000
38.498,5.521,20.935,28.008,20.726,14.443,14.709,13.779,-0.010,0.948,-0.353,0.702,2.777,-0.488,53.333,295241.000,1.000
42.397,18.064,26.563,25.419,19.378,15.166,8.800,15.023,-0.009,0.947,-0.356,0.763,2.838,-0.488,53.333,295242.000,1.000
43.103,22.304,25.163,18.965,13.193,10.084,-0.626,11.094,-0.009,0.947,-0.357,0.702,2.716,-0.458,53.333,295243.000,1.000
49.759,16.152,23.057,21.792,13.107,8.014,0.259,9.731,-0.008,0.945,-0.356,0.610,2.777,-0.366,53.333,295244.000,1.000
62.472,11.316,26.744,33.554,20.984,13.050,10.672,14.745,-0.007,0.943,-0.356,0.458,2.747,-0.336,53.333,295245.000,1.000
71.765,17.415,34.172,41.033,27.616,19.516,17.015,21.098,-0.007,0.945,-0.356,0.488,2.716,-0.336,53.333,295246.000,1.000
71.414,29.078,37.866,36.526,25.939,20.385,12.219,22.136,-0.007,0.944,-0.357,0.519,2.686,-0.336,53.333,295247.000,1.000
66.878,33.589,35.408,28.451,20.933,17.236,5.609,18.796,-0.005,0.946,-0.355,0.610,2.686,-0.305,53.333,295248.000,1.000
67.636,28.306,32.629,29.501,22.364,17.739,9.476,17.946,-0.006,0.944,-0.355,0.610,2.563,-0.275,53.333,295249.000,1.000
74.001,23.847,35.176,38.818,30.603,24.309,21.140,22.362,-0.005,0.944,-0.353,0.641,2.533,-0.275,53.333,295250.000,1.000
76.727,28.887,40.389,43.056,35.562,30.061,25.892,26.568,-0.006,0.944,-0.354,0.702,2.594,-0.305,53.333,295251.000,1.000
69.976,37.817,40.851,34.948,30.482,27.990,17.080,24.409,-0.006,0.943,-0.354,0.671,2.625,-0.305,53.333,295252.000,1.000
59.622,38.372,34.660,23.606,21.429,20.639,5.505,17.741,-0.006,0.943,-0.355,0.641,2.472,-0.244,53.333,295253.000,1.000
55.217,28.567,28.101,22.109,19.154,16.749,4.874,14.013,-0.006,0.943,-0.355,0.702,2.441,-0.336,53.333,295254.000,1.000
56.731,19.526,27.046,29.470,24.420,19.431,13.240,16.002,-0.006,0.942,-0.353,0.763,2.411,-0.397,53.333,295255.000,1.000
54.575,20.262,28.944,31.974,27.011,22.088,15.962,18.010,-0.006,0.942,-0.352,0.885,2.441,-0.488,53.333,295256.000,1.000
42.977,25.439,26.473,22.110,19.857,17.732,6.069,13.884,-0.006,0.942,-0.352,0.916,2.411,-0.458,53.333,295257.000,1.000
28.387,23.140,17.897,9.088,8.973,8.951,-5.946,5.831,-0.005,0.943,-0.354,0.885,2.380,-0.427,53.333,295258.000,1.000
21.191,11.844,9.811,6.403,5.467,4.678,-6.384,1.750,-0.003,0.943,-0.355,0.885,2.441,-0.610,53.333,295259.000,1.000
21.881,2.898,8.302,13.457,10.413,7.982,2.859,4.579,-0.007,0.941,-0.354,1.007,2.411,-0.702,53.333,295260.000,1.000
20.680,4.976,10.763,16.630,13.523,11.852,6.973,8.325,-0.007,0.943,-0.356,0.916,2.319,-0.641,53.333,295261.000,1.000
11.113,12.021,9.636,8.199,7.425,8.855,-1.337,6.188,-0.008,0.944,-0.357,0.885,2.289,-0.732,53.333,295262.000,1.000
-1.193,11.325,2.843,-3.089,-2.276,1.177,-11.957,-0.380,-0.005,0.944,-0.355,0.916,2.289,-0.671,53.333,295263.000,1.000
-6.505,0.767,-3.452,-4.258,-4.921,-2.722,-11.548,-3.930,-0.005,0.944,-0.354,0.977,2.319,-0.763,53.333,295264.000,1.000
-4.654,-8.440,-3.539,3.767,0.364,0.001,-2.126,-1.408,-0.007,0.947,-0.354,0.977,2.380,-0.793,53.333,295265.000,1.000
-5.462,-7.309,-0.294,7.201,3.410,2.568,1.616,1.585,-0.007,0.948,-0.349,1.038,2.319,-0.763,53.333,295266.000,1.000
-15.315,-1.486,-1.405,-1.710,-2.963,-2.081,-7.502,-1.476,-0.006,0.949,-0.351,0.854,2.258,-0.793,53.333,295267.000,1.000
-28.438,-3.398,-8.875,-14.006,-13.004,-11.441,-19.296,-8.980,-0.007,0.948,-0.353,0.916,2.258,-0.824,53.333,295268.000,1.000
-34.866,-14.980,-16.216,-16.209,-15.786,-16.527,-20.147,-13.177,-0.005,0.948,-0.354,0.885,2.228,-0.854,53.333,295269.000,1.000
-34.023,-24.747,-17.179,-8.593,-9.952,-13.695,-11.398,-10.492,-0.005,0.947,-0.350,0.793,2.258,-0.793,53.333,295270.000,1.000
-35.322,-23.434,-14.176,-4.517,-5.375,-9.280,-7.076,-6.099,-0.004,0.947,-0.352,0.732,2.197,-0.732,53.333,295271.000,1.000
-45.112,-16.682,-14.872,-11.902,-9.551,-10.806,-14.320,-6.498,-0.006,0.947,-0.353,0.763,2.228,-0.702,53.333,295272.000,1.000
-57.819,-17.061,-21.495,-22.366,-17.388,-16.722,-23.507,-10.455,-0.006,0.949,-0.353,0.671,2.228,-0.763,53.333,295273.000,1.000
-63.502,-26.625,-27.699,-23.037,-18.514,-18.836,-21.756,-11.048,-0.008,0.948,-0.354,0.763,2.319,-0.610,53.333,295274.000,1.000
-61.365,-34.121,-27.327,-14.604,-11.905,-14.004,-11.080,-5.847,-0.008,0.948,-0.353,0.671,2.319,-0.580,53.333,295275.000,1.000
-60.440,-30.511,-22.800,-10.436,-7.363,-8.640,-5.849,-0.792,-0.008,0.946,-0.354,0.580,2.289,-0.610,53.333,295276.000,1.000
-66.737,-21.476,-21.675,-18.077,-11.881,-9.893,-13.003,-2.382,-0.008,0.946,-0.355,0.580,2.289,-0.519,53.333,295277.000,1.000
-74.868,-19.815,-26.278,-28.812,-19.934,-15.830,-22.480,-8.865,-0.006,0.947,-0.354,0.519,2.289,-0.458,53.333,295278.000,1.000
-75.672,-28.093,-30.704,-29.658,-21.149,-18.225,-21.128,-12.466,-0.007,0.948,-0.353,0.488,2.533,-0.519,53.333,295279.000,1.000
-69.227,-35.321,-29.225,-21.219,-14.691,-14.038,-10.894,-9.715,-0.006,0.948,-0.351,0.580,2.441,-0.580,53.333,295280.000,1.000
-65.100,-32.166,-24.349,-16.718,-10.370,-9.533,-6.054,-5.767,-0.006,0.948,-0.350,0.580,2.472,-0.549,53.333,295281.000,1.000
-69.273,-23.542,-23.315,-23.582,-14.880,-11.321,-13.255,-6.942,-0.006,0.946,-0.350,0.519,2.502,-0.519,53.333,295282.000,1.000
-75.934,-21.373,-28.001,-33.168,-22.366,-16.956,-22.057,-11.940,-0.007,0.945,-0.349,0.580,2.380,-0.397,53.333,295283.000,1.000
-75.704,-27.958,-32.429,-32.938,-22.560,-18.311,-19.315,-13.892,-0.005,0.945,-0.351,0.549,2.319,-0.397,53.333,295284.000,1.000
-68.895,-32.965,-31.236,-24.147,-15.245,-13.059,-7.636,-10.254,-0.005,0.945,-0.352,0.610,2.411,-0.397,53.333,295285.000,1.000
-65.337,-28.179,-27.261,-20.377,-10.952,-8.348,-2.287,-6.733,-0.002,0.944,-0.354,0.580,2.380,-0.549,53.333,295286.000,1.000
-70.986,-19.509,-27.721,-28.802,-16.823,-11.443,-10.672,-9.674,-0.005,0.945,-0.355,0.610,2.411,-0.397,53.333,295287.000,1.000
-79.641,-19.220,-34.066,-39.990,-26.825,-19.884,-22.411,-17.172,-0.005,0.946,-0.353,0.549,2.594,-0.336,53.333,295288.000,1.000
-81.177,-28.869,-39.544,-40.463,-29.696,-24.553,-23.459,-21.212,-0.004,0.945,-0.352,0.641,2.533,-0.275,53.333,295289.000,1.000
-75.193,-36.751,-38.166,-31.025,-23.948,-21.696,-14.964,-18.302,-0.006,0.945,-0.349,0.702,2.533,-0.366,53.333,295290.000,1.000
-71.278,-33.543,-32.767,-25.513,-19.365,-17.447,-10.971,-13.978,-0.005,0.943,-0.349,0.732,2.625,-0.305,53.333,295291.000,1.000
-75.404,-24.594,-30.932,-31.563,-23.011,-18.703,-18.335,-14.865,-0.003,0.943,-0.351,0.916,2.655,-0.183,53.333,295292.000,1.000
-81.390,-22.217,-34.559,-40.106,-29.386,-23.337,-26.979,-19.528,-0.003,0.944,-0.348,0.885,2.655,-0.397,53.333,295293.000,1.000
-79.380,-28.767,-37.482,-38.138,-28.390,-23.425,-24.136,-20.838,-0.002,0.943,-0.352,0.824,2.838,-0.366,53.333,295294.000,1.000
-69.482,-33.590,-34.175,-26.883,-19.757,-16.743,-12.550,-16.235,-0.003,0.943,-0.353,0.946,2.838,-0.305,53.333,295295.000,1.000
-61.683,-27.920,-27.393,-20.136,-13.750,-10.363,-7.134,-11.417,-0.004,0.943,-0.351,0.977,2.777,-0.366,53.333,295296.000,1.000
-62.180,-17.081,-24.276,-25.164,-17.065,-11.233,-14.588,-12.392,-0.002,0.943,-0.351,1.038,2.808,-0.427,53.333,295297.000,1.000
-64.929,-13.008,-26.271,-32.528,-23.353,-16.525,-24.017,-16.868,-0.003,0.944,-0.353,1.068,2.930,-0.397,53.333,295298.000,1.000
-60.033,-17.551,-26.918,-28.967,-21.591,-17.149,-21.567,-17.019,-0.003,0.944,-0.353,1.068,2.960,-0.397,53.333,295299.000,1.000
-47.531,-19.921,-20.798,-15.753,-11.066,-9.930,-9.174,-10.109,-0.003,0.945,-0.348,1.129,2.930,-0.366,53.333,295300.000,1.000
-37.536,-11.845,-11.301,-7.139,-2.378,-1.833,-1.659,-2.361,-0.003,0.945,-0.350,1.221,2.960,-0.397,53.333,295301.000,1.000
-36.485,0.686,-6.293,-10.907,-2.948,-0.350,-6.142,-0.592,-0.005,0.944,-0.351,1.251,3.052,-0.458,53.333,295302.000,1.000
-38.541,5.346,-7.600,-17.835,-7.045,-3.357,-12.241,-3.096,-0.004,0.945,-0.353,1.251,3.082,-0.488,53.333,295303.000,1.000
-34.102,0.094,-8.859,-14.658,-4.124,-2.465,-6.674,-2.373,-0.005,0.944,-0.350,1.282,3.174,-0.610,53.333,295304.000,1.000
-23.582,-4.384,-4.672,-2.594,6.097,4.823,7.865,4.188,-0.005,0.944,-0.348,1.343,3.204,-0.580,53.333,295305.000,1.000
-17.259,0.135,1.576,4.104,12.705,11.104,15.685,10.362,-0.005,0.944,-0.353,1.434,3.143,-0.580,53.333,295306.000,1.000
-21.336,7.646,2.041,-2.483,8.157,8.873,8.980,9.212,-0.005,0.945,-0.353,1.465,3.082,-0.671,53.333,295307.000,1.000
-29.308,6.139,-4.853,-13.174,-1.531,0.774,-1.911,2.323,-0.005,0.944,-0.354,1.404,3.082,-0.763,53.333,295308.000,1.000
-30.349,-5.288,-11.824,-14.147,-4.788,-3.697,-2.728,-2.239,-0.005,0.946,-0.352,1.343,3.052,-0.763,53.333,295309.000,1.000
-23.311,-14.208,-11.951,-5.505,0.294,-0.566,5.648,-0.535,-0.003,0.946,-0.355,1.312,3.082,-0.702,53.333,295310.000,1.000
-17.401,-11.044,-7.354,-0.553,4.190,3.885,9.268,2.477,-0.004,0.947,-0.352,1.282,3.143,-0.763,53.333,295311.000,1.000
-18.884,-1.642,-5.638,-7.002,-0.309,2.229,1.086,0.428,-0.003,0.950,-0.352,1.373,3.204,-0.824,53.333,295312.000,1.000
-22.317,0.912,-9.163,-16.156,-7.973,-3.813,-8.985,-5.266,-0.005,0.949,-0.350,1.251,3.113,-0.763,53.333,295313.000,1.000
-18.361,-6.057,-11.966,-14.975,-8.528,-6.023,-7.827,-7.327,-0.004,0.948,-0.353,1.251,3.052,-0.793,53.333,295314.000,1.000
-7.151,-11.702,-8.394,-4.168,-1.183,-1.385,2.516,-2.876,-0.006,0.948,-0.354,1.251,3.174,-0.824,53.333,295315.000,1.000
1.448,-7.026,-1.242,2.787,4.052,3.539,7.451,2.356,-0.007,0.949,-0.355,1.251,3.052,-0.793,53.333,295316.000,1.000
1.096,2.595,1.869,-1.816,0.132,1.661,-0.081,1.716,-0.005,0.948,-0.354,1.312,2.991,-0.763,53.333,295317.000,1.000
-2.668,4.883,-1.229,-9.595,-7.280,-4.778,-9.863,-3.402,-0.004,0.946,-0.351,1.221,3.052,-0.702,53.333,295318.000,1.000
-0.465,-2.329,-4.540,-8.097,-7.661,-7.265,-8.513,-5.633,-0.007,0.946,-0.352,1.190,3.052,-0.732,53.333,295319.000,1.000
7.714,-8.101,-2.401,1.633,-0.247,-2.775,2.023,-1.826,-0.008,0.946,-0.352,1.190,3.021,-0.763,53.333,295320.000,1.000
12.419,-3.640,2.614,6.360,4.777,2.006,7.111,2.672,-0.006,0.947,-0.351,1.251,3.082,-0.885,53.333,295321.000,1.000
7.911,5.311,3.307,-0.917,0.176,-0.227,-0.502,1.493,-0.006,0.945,-0.350,1.221,3.082,-0.732,53.333,295322.000,1.000
0.376,6.208,-2.037,-10.935,-8.511,-7.541,-10.921,-3.916,-0.007,0.945,-0.352,1.251,2.960,-0.671,53.333,295323.000,1.000
-0.268,-3.051,-7.094,-10.600,-10.733,-11.638,-10.999,-6.390,-0.007,0.944,-0.352,1.190,2.899,-0.763,53.333,295324.000,1.000
6.250,-11.089,-6.030,-0.896,-5.427,-9.261,-2.502,-3.059,-0.005,0.943,-0.350,1.251,2.930,-0.763,53.333,295325.000,1.000
10.498,-8.402,-1.303,4.521,-2.117,-6.258,0.692,0.692,-0.006,0.944,-0.353,1.282,2.838,-0.793,53.333,295326.000,1.000
6.766,0.028,0.077,-1.721,-7.154,-8.794,-7.587,-1.170,-0.007,0.945,-0.350,1.251,2.777,-0.671,53.333,295327.000,1.000
1.376,2.228,-3.374,-10.332,-14.238,-14.023,-16.545,-6.591,-0.008,0.947,-0.354,1.190,2.777,-0.732,53.333,295328.000,1.000
4.245,-3.757,-5.274,-8.031,-12.567,-13.396,-12.780,-7.772,-0.008,0.945,-0.360,1.251,2.777,-0.671,53.333,295329.000,1.000
15.059,-7.190,-0.329,3.975,-1.772,-4.515,1.154,-1.766,-0.009,0.946,-0.358,1.221,2.716,-0.641,53.333,295330.000,1.000
23.233,-0.006,7.788,11.287,6.925,4.782,9.565,5.165,-0.009,0.945,-0.358,1.221,2.686,-0.641,53.333,295331.000,1.000
22.021,11.450,10.893,5.822,5.325,6.223,4.321,5.680,-0.009,0.945,-0.354,1.160,2.655,-0.641,53.333,295332.000,1.000
17.464,14.763,7.185,-3.281,-1.232,1.642,-4.751,0.908,-0.006,0.944,-0.355,1.312,2.625,-0.732,53.333,295333.000,1.000
19.819,8.295,3.567,-2.382,-1.790,-0.119,-3.952,-1.633,-0.007,0.946,-0.353,1.251,2.625,-0.610,53.333,295334.000,1.000
29.318,3.359,6.189,7.857,4.977,4.464,5.303,1.321,-0.008,0.945,-0.352,1.312,2.533,-0.610,53.333,295335.000,1.000
35.917,8.704,12.212,13.530,9.317,9.106,8.897,4.444,-0.006,0.945,-0.355,1.221,2.563,-0.610,53.333,295336.000,1.000
33.189,18.595,13.980,6.826,4.488,7.038,0.250,1.686,-0.005,0.944,-0.356,1.282,2.563,-0.549,53.333,295337.000,1.000
27.136,20.843,9.734,-3.111,-3.357,0.957,-9.916,-4.749,-0.006,0.944,-0.356,1.343,2.472,-0.488,53.333,295338.000,1.000
28.015,13.817,6.202,-2.613,-3.220,-0.229,-7.907,-6.846,-0.006,0.943,-0.353,1.312,2.502,-0.488,53.333,295339.000,1.000
36.472,8.904,9.499,7.921,5.746,6.502,4.178,-1.570,-0.006,0.944,-0.353,1.312,2.502,-0.610,53.333,295340.000,1.000
42.829,14.721,16.628,14.673,12.809,13.860,11.015,4.648,-0.005,0.944,-0.354,1.404,2.441,-0.610,53.333,295341.000,1.000
40.364,24.833,19.260,9.258,9.847,13.627,4.541,4.137,-0.005,0.944,-0.354,1.312,2.502,-0.671,53.333,295342.000,1.000
34.350,26.179,14.747,-0.136,1.851,7.214,-5.635,-2.096,-0.007,0.943,-0.354,1.404,2.441,-0.641,53.333,295343.000,1.000
34.557,16.770,9.420,-0.454,-0.421,3.147,-5.947,-6.159,-0.006,0.943,-0.355,1.404,2.472,-0.610,53.333,295344.000,1.000
41.671,8.396,9.795,8.074,4.692,5.212,2.431,-4.084,-0.007,0.943,-0.354,1.495,2.441,-0.671,53.333,295345.000,1.000
46.395,10.580,13.859,12.454,7.854,7.642,5.684,-0.803,-0.005,0.946,-0.350,1.434,2.380,-0.732,53.333,295346.000,1.000
42.482,17.846,14.366,5.357,2.233,3.819,-2.867,-2.688,-0.006,0.945,-0.353,1.373,2.380,-0.702,53.333,295347.000,1.000
35.590,17.724,9.379,-4.253,-6.482,-3.811,-12.902,-8.255,-0.006,0.945,-0.353,1.373,2.380,-0.732,53.333,295348.000,1.000
35.476,8.227,5.189,-3.262,-7.609,-6.627,-11.035,-10.094,-0.006,0.945,-0.353,1.312,2.319,-0.916,53.333,295349.000,1.000
42.352,0.754,7.580,7.434,-0.167,-1.597,0.676,-5.290,-0.006,0.944,-0.352,1.343,2.228,-0.824,53.333,295350.000,1.000
46.475,4.551,13.658,13.998,5.715,4.441,7.343,0.265,-0.006,0.946,-0.354,1.282,2.411,-0.793,53.333,295351.000,1.000
41.526,14.018,15.569,8.543,2.596,3.873,1.445,-0.209,-0.006,0.948,-0.356,1.373,2.380,-0.916,53.333,295352.000,1.000
33.272,16.276,11.051,-0.203,-4.326,-1.652,-7.235,-5.166,-0.007,0.947,-0.354,1.312,2.441,-0.793,53.333,295353.000,1.000
31.676,8.680,6.435,0.885,-4.726,-3.898,-5.488,-7.015,-0.006,0.947,-0.354,1.343,2.350,-0.824,53.333,295354.000,1.000
37.448,2.285,8.030,11.206,2.452,0.460,4.961,-2.549,-0.006,0.946,-0.357,1.282,2.502,-1.007,53.333,295355.000,1.000
41.607,6.549,13.788,17.508,7.736,5.473,10.090,2.998,-0.006,0.945,-0.354,1.251,2.350,-0.916,53.333,295356.000,1.000
38.393,16.466,16.520,12.415,4.572,4.545,3.332,3.383,-0.005,0.945,-0.352,1.190,2.411,-0.885,53.333,295357.000,1.000
33.418,19.805,13.980,4.612,-1.362,-0.107,-5.089,-0.139,-0.008,0.947,-0.354,1.160,2.472,-0.824,53.333,295358.000,1.000
35.698,14.162,11.818,6.726,0.053,-0.383,-2.191,-0.701,-0.006,0.948,-0.354,1.099,2.472,-0.885,53.333,295359.000,1.000
44.481,9.907,15.213,17.549,9.040,6.237,9.611,4.357,-0.008,0.947,-0.357,1.068,2.441,-0.854,53.333,295360.000,1.000
49.299,15.045,20.942,23.183,14.995,12.664,15.438,9.331,-0.006,0.947,-0.354,1.160,2.472,-0.854,53.333,295361.000,1.000
43.647,23.431,21.302,15.854,10.676,11.602,8.233,7.831,-0.007,0.947,-0.353,1.221,2.441,-0.916,53.333,295362.000,1.000
33.673,23.000,14.679,4.606,2.146,5.612,-1.431,1.807,-0.007,0.946,-0.353,1.129,2.411,-0.916,53.333,295363.000,1.000
30.024,12.778,8.166,3.093,0.758,3.932,0.400,-0.764,-0.007,0.945,-0.358,1.129,2.350,-0.946,53.333,295364.000,1.000
34.007,5.092,8.469,11.204,8.051,10.229,12.181,3.478,-0.008,0.946,-0.356,1.160,2.380,-0.824,53.333,295365.000,1.000
36.720,9.387,13.327,15.736,14.071,17.792,19.125,8.830,-0.009,0.946,-0.351,1.099,2.441,-0.916,53.333,295366.000,1.000
31.961,19.504,15.010,8.983,11.163,18.527,13.302,8.309,-0.009,0.948,-0.351,1.038,2.380,-0.824,53.333,295367.000,1.000
24.931,21.873,10.932,-0.576,4.161,13.372,3.910,2.945,-0.009,0.947,-0.351,1.007,2.472,-0.793,53.333,295368.000,1.000
24.719,13.456,6.757,-0.196,3.072,10.012,3.806,-0.053,-0.007,0.946,-0.351,0.977,2.228,-0.702,53.333,295369.000,1.000
31.150,5.115,8.040,9.272,8.718,11.550,11.309,2.542,-0.007,0.945,-0.350,1.068,2.258,-0.702,53.333,295370.000,1.000
34.525,6.256,12.254,14.504,11.524,12.202,12.719,5.745,-0.008,0.944,-0.352,1.007,2.228,-0.671,53.333,295371.000,1.000
28.765,12.136,12.302,8.264,5.139,5.966,1.998,3.763,-0.009,0.943,-0.352,0.916,2.289,-0.641,53.333,295372.000,1.000
19.928,11.274,6.676,-0.408,-4.068,-3.876,-9.844,-1.592,-0.009,0.941,-0.350,0.946,2.350,-0.610,53.333,295373.000,1.000
18.378,2.382,2.142,1.472,-4.991,-7.935,-8.964,-3.239,-0.008,0.942,-0.354,1.007,2.380,-0.580,53.333,295374.000,1.000
25.031,-3.184,4.848,12.819,3.304,-2.860,2.629,1.294,-0.007,0.943,-0.356,1.068,2.380,-0.549,53.333,295375.000,1.000
30.240,2.742,11.773,19.579,10.072,3.952,9.547,6.024,-0.006,0.945,-0.356,1.160,2.380,-0.488,53.333,295376.000,1.000
26.962,13.156,14.483,13.704,7.136,3.900,3.576,4.299,-0.007,0.945,-0.353,1.129,2.502,-0.519,53.333,295377.000,1.000
20.147,14.752,10.279,4.073,-0.427,-1.787,-5.718,-2.083,-0.008,0.944,-0.353,1.160,2.411,-0.610,53.333,295378.000,1.000
19.446,5.677,5.549,4.312,-1.699,-4.426,-4.696,-5.063,-0.007,0.944,-0.355,1.099,2.502,-0.580,53.333,295379.000,1.000
25.653,-1.953,6.941,14.303,5.038,-0.077,5.491,-1.004,-0.008,0.945,-0.353,1.038,2.502,-0.549,53.333,295380.000,1.000
29.866,1.768,12.595,20.797,10.374,5.312,10.877,4.683,-0.006,0.948,-0.354,1.129,2.625,-0.458,53.333,295381.000,1.000
26.234,11.542,15.166,15.931,7.202,4.549,4.348,5.077,-0.003,0.948,-0.354,1.221,2.563,-0.427,53.333,295382.000,1.000
20.301,14.558,12.119,7.943,0.639,-0.688,-4.456,1.012,-0.005,0.944,-0.354,1.190,2.563,-0.458,53.333,295383.000,1.000
21.339,8.183,9.034,9.387,0.797,-2.274,-2.611,-0.519,-0.003,0.943,-0.353,1.160,2.533,-0.336,53.333,295384.000,1.000
29.366,3.419,11.573,19.335,8.606,2.989,8.087,3.588,-0.003,0.942,-0.355,1.190,2.747,-0.336,53.333,295385.000,1.000
35.006,9.523,17.495,24.531,14.519,9.027,13.696,8.181,-0.003,0.942,-0.356,1.312,2.869,-0.305,53.333,295386.000,1.000
32.461,21.124,19.920,18.048,11.937,9.173,7.729,7.339,-0.004,0.940,-0.358,1.373,2.808,-0.458,53.333,295387.000,1.000
27.531,25.507,17.092,9.318,6.529,5.571,0.395,3.050,-0.002,0.939,-0.356,1.434,2.869,-0.427,53.333,295388.000,1.000
29.428,19.823,14.862,11.301,8.283,6.022,4.378,2.682,-0.003,0.940,-0.357,1.404,2.960,-0.397,53.333,295389.000,1.000
37.681,14.534,18.337,22.390,17.241,12.631,16.788,8.582,-0.004,0.940,-0.359,1.495,2.960,-0.519,53.333,295390.000,1.000
42.257,18.394,24.263,28.093,22.779,18.158,22.451,14.240,-0.004,0.939,-0.357,1.526,3.082,-0.519,53.333,295391.000,1.000
36.913,25.908,24.898,20.407,17.695,15.427,14.269,12.615,-0.003,0.940,-0.357,1.556,3.143,-0.641,53.333,295392.000,1.000
27.667,24.965,18.499,8.561,8.050,7.188,2.904,5.577,-0.004,0.941,-0.359,1.709,3.174,-0.580,53.333,295393.000,1.000
24.725,14.061,11.988,6.504,5.180,2.811,2.459,1.563,-0.004,0.940,-0.355,1.770,3.174,-0.610,53.333,295394.000,1.000
28.743,4.920,11.812,14.222,10.549,5.951,11.517,4.422,-0.005,0.941,-0.354,1.862,3.265,-0.763,53.333,295395.000,1.000
30.341,6.734,15.457,18.385,14.155,9.956,15.487,8.612,-0.003,0.941,-0.355,1.984,3.326,-0.763,53.333,295396.000,1.000
23.467,13.772,15.194,11.072,8.590,7.242,6.913,7.094,-0.004,0.945,-0.357,2.014,3.235,-0.854,53.333,295397.000,1.000
13.959,13.298,8.719,0.559,-0.767,-0.386,-4.335,0.862,-0.005,0.946,-0.357,2.045,3.296,-0.946,53.333,295398.000,1.000
11.547,3.014,2.180,-0.462,-3.286,-4.439,-4.820,-2.766,-0.006,0.948,-0.357,2.014,3.204,-1.007,53.333,295399.000,1.000
16.462,-5.852,1.714,7.336,2.288,-1.381,4.046,-0.359,-0.005,0.949,-0.355,1.984,3.143,-1.068,53.333,295400.000,1.000
19.113,-4.138,5.187,10.910,6.325,2.809,8.327,3.140,-0.007,0.951,-0.357,1.862,3.113,-1.190,53.333,295401.000,1.000
13.219,2.513,5.427,3.216,1.798,1.163,1.145,1.641,-0.008,0.953,-0.359,1.831,3.021,-1.251,53.333,295402.000,1.000
4.305,1.516,0.317,-6.738,-6.038,-4.628,-7.760,-3.502,-0.008,0.953,-0.354,1.678,3.082,-1.343,53.333,295403.000,1.000
1.896,-9.048,-4.263,-6.259,-7.116,-6.790,-5.757,-5.467,-0.009,0.953,-0.355,1.556,3.052,-1.373,53.333,295404.000,1.000
6.241,-17.530,-2.832,3.307,-0.810,-2.694,4.689,-1.702,-0.008,0.955,-0.356,1.343,2.899,-1.465,53.333,295405.000,1.000
7.982,-14.663,1.692,8.114,2.889,1.009,8.868,2.189,-0.009,0.954,-0.356,1.343,2.838,-1.526,53.333,295406.000,1.000
1.303,-6.248,1.729,0.682,-2.863,-2.555,-0.056,0.021,-0.008,0.955,-0.355,1.160,2.808,-1.617,53.333,295407.000,1.000
-7.710,-5.081,-4.518,-9.844,-12.043,-10.674,-11.368,-6.368,-0.009,0.950,-0.354,1.007,2.808,-1.465,53.333,295408.000,1.000
-9.223,-13.363,-10.416,-10.220,-13.679,-14.267,-11.130,-9.463,-0.010,0.949,-0.356,0.977,2.777,-1.434,53.333,295409.000,1.000
-3.170,-19.766,-9.744,-1.200,-6.631,-9.883,-0.941,-6.199,-0.008,0.950,-0.355,0.854,2.686,-1.556,53.333,295410.000,1.000
0.623,-15.028,-4.875,3.771,-0.863,-4.025,4.686,-1.931,-0.008,0.950,-0.356,0.854,2.686,-1.404,53.333,295411.000,1.000
-4.070,-4.578,-3.146,-2.564,-3.510,-3.958,-1.408,-2.797,-0.010,0.950,-0.356,0.732,2.655,-1.282,53.333,295412.000,1.000
-11.318,-0.906,-6.497,-10.953,-9.030,-7.764,-9.168,-7.035,-0.010,0.948,-0.353,0.702,2.625,-1.221,53.333,295413.000,1.000
-11.142,-6.311,-8.678,-8.220,-7.017,-7.255,-5.405,-7.268,-0.009,0.947,-0.351,0.519,2.441,-1.068,53.333,295414.000,1.000
-3.203,-9.941,-4.002,4.410,3.122,0.318,7.699,-0.766,-0.012,0.947,-0.350,0.549,2.441,-0.977,53.333,295415.000,1.000
2.643,-3.259,4.369,12.507,10.900,7.965,15.253,6.432,-0.010,0.945,-0.354,0.488,2.411,-0.885,53.333,295416.000,1.000
-0.305,7.664,8.209,7.699,8.766,8.162,9.871,7.311,-0.011,0.943,-0.355,0.549,2.411,-0.793,53.333,295417.000,1.000
-6.734,10.098,4.966,-1.390,2.095,2.849,1.498,3.004,-0.012,0.942,-0.352,0.580,2.380,-0.793,53.333,295418.000,1.000
-7.095,1.942,0.736,-1.415,1.456,0.449,3.379,0.929,-0.011,0.942,-0.353,0.671,2.380,-0.732,53.333,295419.000,1.000
-0.997,-5.168,1.728,7.426,8.125,4.351,13.837,4.679,-0.011,0.941,-0.354,0.671,2.411,-0.549,53.333,295420.000,1.000
2.353,-1.415,5.955,12.196,12.727,8.679,18.940,9.360,-0.011,0.942,-0.354,0.641,2.319,-0.519,53.333,295421.000,1.000
-2.992,7.962,6.278,5.489,8.494,6.777,11.981,8.537,-0.012,0.940,-0.350,0.641,2.167,-0.366,53.333,295422.000,1.000
-11.372,9.971,0.545,-4.196,0.751,0.609,2.778,3.218,-0.010,0.939,-0.353,0.610,2.136,-0.519,53.333,295423.000,1.000
-13.153,1.647,-5.200,-4.241,-0.452,-1.939,3.952,0.383,-0.010,0.938,-0.352,0.580,2.045,-0.336,53.333,295424.000,1.000
-7.912,-6.299,-4.990,4.451,5.564,1.766,13.139,3.104,-0.009,0.942,-0.353,0.549,2.075,-0.244,53.333,295425.000,1.000
-4.950,-4.718,-1.134,8.591,9.017,5.174,16.055,6.263,-0.008,0.942,-0.356,0.641,2.045,-0.244,53.333,295426.000,1.000
-10.202,1.412,-0.754,1.104,3.419,1.721,6.521,4.047,-0.007,0.942,-0.351,0.641,2.014,-0.305,53.333,295427.000,1.000
-17.723,0.478,-5.539,-8.625,-4.929,-5.595,-4.294,-1.346,-0.008,0.942,-0.352,0.549,2.075,-0.305,53.333,295428.000,1.000
-17.834,-9.075,-9.258,-7.419,-5.229,-7.883,-2.661,-2.310,-0.006,0.942,-0.355,0.641,2.045,-0.275,53.333,295429.000,1.000
-10.702,-16.237,-6.584,3.440,2.940,-2.453,8.967,3.605,-0.004,0.940,-0.353,0.519,2.045,-0.305,53.333,295430.000,1.000
-6.377,-12.571,-0.804,9.671,8.787,3.374,15.125,9.893,-0.004,0.943,-0.354,0.549,2.167,-0.244,53.333,295431.000,1.000
-11.168,-4.020,0.340,3.247,4.772,2.018,8.179,9.483,-0.004,0.944,-0.354,0.519,2.167,-0.305,53.333,295432.000,1.000
-19.138,-2.980,-4.951,-6.984,-3.436,-4.347,-1.723,3.937,-0.004,0.944,-0.355,0.488,2.228,-0.397,53.333,295433.000,1.000
-20.337,-11.348,-10.058,-7.631,-4.979,-7.020,-0.985,1.026,-0.004,0.944,-0.351,0.580,2.197,-0.397,53.333,295434.000,1.000
-14.363,-17.877,-8.805,1.025,1.365,-2.703,8.756,4.130,-0.002,0.944,-0.352,0.580,2.289,-0.488,53.333,295435.000,1.000
-10.685,-13.705,-3.668,5.870,5.778,2.073,13.148,7.877,-0.001,0.945,-0.353,0.610,2.411,-0.519,53.333,295436.000,1.000
-15.345,-4.595,-2.113,-0.459,1.233,0.063,5.176,5.902,0.000,0.945,-0.352,0.610,2.502,-0.610,53.333,295437.000,1.000
-22.376,-2.810,-6.094,-9.021,-6.537,-6.505,-4.938,0.001,-0.002,0.944,-0.355,0.610,2.502,-0.610,53.333,295438.000,1.000
-21.881,-9.968,-9.307,-6.857,-6.758,-8.787,-3.679,-2.022,-0.001,0.943,-0.352,0.610,2.625,-0.641,53.333,295439.000,1.000
-13.744,-14.679,-6.066,4.792,1.508,-3.384,7.137,2.997,-0.003,0.945,-0.356,0.580,2.655,-0.732,53.333,295440.000,1.000
-8.031,-8.382,0.511,11.638,7.884,2.948,12.789,9.070,-0.002,0.944,-0.354,0.610,2.686,-0.793,53.333,295441.000,1.000
-11.442,2.515,2.441,5.497,4.725,2.492,5.818,9.051,-0.002,0.944,-0.355,0.610,2.869,-0.763,53.333,295442.000,1.000
-18.270,5.192,-2.256,-4.762,-2.544,-2.926,-3.829,4.165,-0.001,0.944,-0.354,0.641,2.899,-0.824,53.333,295443.000,1.000
-18.306,-2.105,-6.782,-5.503,-3.140,-4.714,-2.743,1.843,-0.002,0.947,-0.353,0.641,2.899,-0.854,53.333,295444.000,1.000
-10.770,-7.700,-4.731,3.139,4.056,0.357,7.243,5.123,-0.003,0.946,-0.354,0.641,3.052,-0.885,53.333,295445.000,1.000
-4.992,-2.353,1.465,8.041,9.141,5.712,11.669,8.573,-0.004,0.947,-0.352,0.671,3.113,-0.916,53.333,295446.000,1.000
-7.244,8.306,4.225,1.776,5.198,4.249,3.621,6.130,-0.006,0.947,-0.352,0.885,3.143,-0.946,53.333,295447.000,1.000
-12.255,11.589,1.237,-6.949,-2.013,-1.758,-6.624,-0.252,-0.007,0.948,-0.354,0.702,3.143,-0.824,53.333,295448.000,1.000
-11.006,5.030,-1.712,-5.505,-2.019,-3.737,-5.702,-3.027,-0.007,0.949,-0.351,0.732,3.143,-0.916,53.333,295449.000,1.000
-3.739,-0.531,0.853,4.869,5.841,1.468,4.558,0.760,-0.009,0.950,-0.349,0.824,3.113,-1.007,53.333,295450.000,1.000
0.027,3.746,6.212,10.476,11.378,7.303,9.827,5.452,-0.008,0.949,-0.348,0.916,3.113,-0.946,53.333,295451.000,1.000
-5.394,12.241,7.066,3.944,7.454,6.485,3.132,4.548,-0.010,0.950,-0.350,0.793,3.082,-0.977,53.333,295452.000,1.000
-13.754,12.536,1.646,-5.557,-0.328,0.845,-5.599,-0.369,-0.010,0.952,-0.354,0.885,3.082,-0.946,53.333,295453.000,1.000
-15.169,2.593,-3.738,-4.931,-1.547,-1.550,-3.581,-1.934,-0.010,0.951,-0.352,0.732,3.113,-0.854,53.333,295454.000,1.000
-9.579,-6.343,-3.385,4.629,4.407,2.041,6.627,2.551,-0.010,0.949,-0.349,0.824,3.204,-0.916,53.333,295455.000,1.000
-6.810,-5.166,-0.100,9.099,7.353,4.982,10.199,7.055,-0.009,0.947,-0.349,0.732,3.021,-0.916,53.333,295456.000,1.000
-12.975,0.813,-1.207,0.935,0.496,0.564,0.457,4.909,-0.010,0.946,-0.349,0.854,2.991,-0.885,53.333,295457.000,1.000
-21.934,-0.275,-8.148,-10.397,-9.824,-8.244,-11.588,-2.000,-0.008,0.943,-0.350,0.946,3.021,-0.824,53.333,295458.000,1.000
-23.496,-9.844,-14.039,-11.156,-12.315,-12.228,-11.800,-5.546,-0.008,0.941,-0.351,1.007,2.899,-0.671,53.333,295459.000,1.000
-17.042,-16.320,-12.612,-1.748,-5.632,-7.943,-1.638,-2.064,-0.008,0.940,-0.352,1.068,2.838,-0.732,53.333,295460.000,1.000
-12.048,-10.909,-6.512,4.259,0.202,-2.065,4.362,3.087,-0.009,0.941,-0.354,1.160,2.838,-0.641,53.333,295461.000,1.000
-15.082,-0.070,-3.780,-1.237,-2.460,-2.324,-1.479,2.991,-0.010,0.939,-0.353,1.312,2.899,-0.580,53.333,295462.000,1.000
-21.098,2.722,-7.244,-10.184,-8.830,-7.320,-9.987,-1.693,-0.007,0.939,-0.350,1.373,3.021,-0.549,53.333,295463.000,1.000
-20.842,-5.141,-11.147,-9.988,-8.889,-8.981,-8.424,-4.182,-0.008,0.936,-0.350,1.556,2.930,-0.458,53.333,295464.000,1.000
-14.012,-12.288,-9.511,-1.179,-1.678,-4.078,1.539,-1.263,-0.006,0.935,-0.351,1.648,2.869,-0.488,53.333,295465.000,1.000
-9.762,-9.169,-4.489,3.450,3.304,1.307,6.271,2.394,-0.006,0.934,-0.351,1.801,2.869,-0.488,53.333,295466.000,1.000
-13.831,-0.954,-3.152,-3.004,-0.473,0.490,-0.437,1.300,-0.005,0.936,-0.353,1.953,2.960,-0.458,53.333,295467.000,1.000
-20.433,-0.069,-7.461,-11.638,-7.308,-4.384,-8.370,-2.666,-0.007,0.938,-0.351,2.014,2.960,-0.427,53.333,295468.000,1.000
-20.270,-8.881,-11.525,-10.086,-7.220,-5.468,-5.127,-2.844,-0.011,0.941,-0.350,2.167,2.899,-0.519,53.333,295469.000,1.000
-13.437,-16.324,-9.796,0.107,0.006,-0.389,6.233,2.472,-0.010,0.942,-0.350,2.258,2.838,-0.610,53.333,295470.000,1.000
-9.193,-12.997,-4.653,5.409,4.414,4.283,10.930,7.093,-0.009,0.943,-0.354,2.289,2.838,-0.763,53.333,295471.000,1.000
-12.969,-3.899,-2.913,-1.021,-0.239,2.182,2.700,5.175,-0.010,0.942,-0.355,2.289,2.686,-0.793,53.333,295472.000,1.000
-18.677,-1.309,-6.204,-9.724,-7.561,-3.778,-7.396,-0.613,-0.010,0.942,-0.355,2.228,2.594,-0.916,53.333,295473.000,1.000
-17.086,-7.824,-8.630,-7.854,-7.071,-5.142,-5.861,-2.370,-0.010,0.944,-0.356,2.228,2.594,-1.038,53.333,295474.000,1.000
-8.842,-13.090,-5.169,2.948,1.315,0.402,4.866,2.416,-0.010,0.944,-0.353,2.228,2.533,-1.038,53.333,295475.000,1.000
-4.027,-8.586,0.909,8.531,6.830,5.513,9.764,7.343,-0.008,0.945,-0.354,2.350,2.502,-1.038,53.333,295476.000,1.000
-8.480,0.349,2.219,1.559,2.395,3.032,1.884,5.615,-0.008,0.947,-0.355,2.289,2.441,-1.099,53.333,295477.000,1.000
-15.655,1.990,-2.554,-8.411,-5.659,-4.127,-7.982,-0.802,-0.009,0.947,-0.352,2.136,2.502,-1.160,53.333,295478.000,1.000
-15.431,-5.288,-6.614,-7.963,-6.141,-6.722,-6.051,-3.762,-0.007,0.949,-0.358,2.167,2.380,-1.251,53.333,295479.000,1.000
-7.921,-10.567,-4.172,1.928,1.795,-1.574,5.528,0.172,-0.006,0.948,-0.360,2.075,2.411,-1.221,53.333,295480.000,1.000
-3.330,-5.590,1.702,7.427,7.667,4.366,11.700,5.309,-0.005,0.948,-0.357,2.014,2.350,-1.251,53.333,295481.000,1.000
-8.086,3.475,3.245,0.946,4.096,3.680,5.177,4.817,-0.006,0.948,-0.359,1.923,2.441,-1.282,53.333,295482.000,1.000
-16.248,4.165,-1.508,-8.488,-3.289,-1.539,-3.846,0.026,-0.006,0.947,-0.358,1.892,2.533,-1.251,53.333,295483.000,1.000
-17.756,-5.176,-6.155,-7.767,-3.869,-2.916,-2.102,-1.642,-0.006,0.947,-0.357,1.862,2.594,-1.190,53.333,295484.000,1.000
-12.026,-12.819,-4.686,2.214,3.273,2.441,8.313,2.930,-0.006,0.945,-0.356,1.862,2.533,-1.160,53.333,295485.000,1.000
-8.326,-9.410,0.371,7.798,8.149,7.801,12.883,8.186,-0.007,0.946,-0.357,1.831,2.563,-1.038,53.333,295486.000,1.000
-12.693,-0.620,1.534,1.346,3.688,5.982,4.795,7.546,-0.008,0.948,-0.359,1.770,2.655,-1.007,53.333,295487.000,1.000
-19.517,0.768,-3.255,-8.338,-4.487,-0.718,-5.561,2.424,-0.009,0.947,-0.359,1.709,2.777,-1.068,53.333,295488.000,1.000
-19.383,-7.497,-7.772,-8.293,-5.813,-3.543,-4.839,0.075,-0.009,0.947,-0.359,1.648,2.747,-1.007,53.333,295489.000,1.000
-12.311,-14.083,-6.189,0.531,0.589,0.762,4.867,3.259,-0.010,0.948,-0.357,1.587,2.686,-0.946,53.333,295490.000,1.000
-7.977,-9.748,-1.220,4.539,4.721,5.543,8.951,6.249,-0.010,0.948,-0.360,1.465,2.808,-0.702,53.333,295491.000,1.000
-12.506,-0.083,-0.414,-3.624,-0.378,3.473,0.534,2.805,-0.010,0.949,-0.361,1.343,2.777,-0.763,53.333,295492.000,1.000
-20.144,2.086,-5.774,-14.744,-8.988,-3.422,-10.012,-4.943,-0.011,0.950,-0.355,1.282,2.686,-0.763,53.333,295493.000,1.000
-21.241,-5.873,-11.025,-15.550,-10.615,-6.683,-9.349,-9.041,-0.012,0.950,-0.357,1.190,2.655,-0.702,53.333,295494.000,1.000
-15.493,-13.033,-10.263,-6.834,-4.478,-3.106,0.465,-6.332,-0.011,0.951,-0.356,1.160,2.655,-0.580,53.333,295495.000,1.000
-12.242,-10.142,-6.099,-2.209,-0.526,0.936,4.860,-2.616,-0.010,0.949,-0.357,1.068,2.686,-0.488,53.333,295496.000,1.000
-17.342,-2.252,-5.955,-9.225,-5.547,-1.455,-3.045,-4.520,-0.009,0.951,-0.358,0.946,2.563,-0.549,53.333,295497.000,1.000
-24.712,-1.268,-11.628,-18.974,-13.597,-7.887,-12.844,-10.318,-0.010,0.946,-0.357,0.916,2.563,-0.488,53.333,295498.000,1.000
-24.476,-9.051,-16.687,-18.543,-14.142,-9.908,-11.237,-12.401,-0.008,0.947,-0.355,0.854,2.625,-0.305,53.333,295499.000,1.000
-16.655,-14.729,-15.398,-9.072,-6.777,-4.913,-0.604,-7.946,-0.009,0.945,-0.353,0.763,2.502,-0.275,53.333,295500.000,1.000
-11.382,-10.046,-10.811,-4.386,-2.156,-0.177,3.961,-3.067,-0.010,0.947,-0.354,0.610,2.594,-0.427,53.333,295501.000,1.000
-15.166,-1.291,-10.702,-12.034,-7.671,-3.196,-4.847,-4.828,-0.009,0.945,-0.355,0.702,2.563,-0.336,53.333,295502.000,1.000
-22.060,-0.898,-16.813,-22.769,-17.369,-11.419,-16.605,-11.932,-0.009,0.944,-0.356,0.763,2.533,-0.305,53.333,295503.000,1.000
-21.758,-10.067,-22.135,-22.961,-19.855,-15.378,-17.318,-16.531,-0.006,0.944,-0.357,0.854,2.594,-0.366,53.333,295504.000,1.000
-13.533,-16.552,-20.162,-13.068,-13.431,-11.060,-8.209,-14.707,-0.008,0.943,-0.358,0.763,2.594,-0.244,53.333,295505.000,1.000
-7.033,-11.098,-13.608,-6.841,-7.886,-4.835,-3.466,-11.351,-0.007,0.941,-0.359,0.763,2.655,-0.214,53.333,295506.000,1.000
-9.004,-0.077,-10.627,-12.276,-10.645,-4.408,-10.252,-12.728,-0.005,0.941,-0.358,0.824,2.655,-0.183,53.333,295507.000,1.000
-14.310,3.006,-13.778,-20.671,-16.576,-8.434,-18.748,-17.267,-0.005,0.941,-0.355,0.763,2.686,-0.244,53.333,295508.000,1.000
-13.481,-4.436,-16.865,-18.890,-15.456,-8.915,-15.889,-17.573,-0.006,0.940,-0.359,0.793,2.777,-0.305,53.333,295509.000,1.000
-6.062,-10.939,-13.695,-7.600,-6.406,-2.623,-3.556,-10.750,-0.006,0.939,-0.355,0.824,2.838,-0.458,53.333,295510.000,1.000
-1.156,-6.822,-6.554,-0.225,0.841,4.440,4.054,-2.637,-0.007,0.939,-0.354,0.885,2.808,-0.427,53.333,295511.000,1.000
-4.579,2.818,-2.857,-4.286,-0.526,5.551,0.119,-0.164,-0.008,0.941,-0.356,0.946,2.838,-0.519,53.333,295512.000,1.000
-10.640,5.570,-4.867,-11.142,-5.000,2.670,-5.553,-2.402,-0.006,0.941,-0.357,0.916,2.777,-0.488,53.333,295513.000,1.000
-9.985,-0.956,-6.795,-8.280,-2.591,3.502,-0.561,-2.500,-0.007,0.942,-0.357,0.946,2.899,-0.488,53.333,295514.000,1.000
-2.649,-5.972,-3.198,2.959,6.929,10.354,12.265,2.344,-0.007,0.943,-0.357,1.129,2.777,-0.549,53.333,295515.000,1.000
1.740,-0.879,3.052,8.811,13.171,16.341,18.067,6.691,-0.009,0.944,-0.356,0.977,2.716,-0.519,53.333,295516.000,1.000
-2.955,8.260,4.394,1.794,8.992,14.408,9.973,4.319,-0.008,0.945,-0.356,0.946,2.686,-0.641,53.333,295517.000,1.000
-10.935,8.646,-1.125,-9.042,0.055,6.818,-1.585,-2.978,-0.009,0.945,-0.356,0.977,2.686,-0.702,53.333,295518.000,1.000
-12.396,-1.760,-7.108,-10.438,-3.036,2.047,-3.085,-7.496,-0.008,0.945,-0.357,1.038,2.777,-0.824,53.333,295519.000,1.000
-6.910,-11.255,-7.359,-2.844,0.916,3.405,3.945,-5.795,-0.008,0.946,-0.356,0.885,2.686,-0.732,53.333,295520.000,1.000
-3.665,-10.057,-3.907,0.818,2.669,5.039,5.797,-2.902,-0.007,0.944,-0.355,0.854,2.686,-0.671,53.333,295521.000,1.000
-8.347,-3.127,-3.582,-6.329,-3.929,0.682,-3.716,-4.814,-0.008,0.943,-0.352,0.885,2.716,-0.763,53.333,295522.000,1.000
-14.986,-2.564,-8.035,-15.082,-12.721,-7.062,-14.133,-9.829,-0.009,0.942,-0.353,0.793,2.716,-0.763,53.333,295523.000,1.000
-14.012,-10.305,-11.078,-12.611,-13.249,-9.856,-12.536,-10.747,-0.009,0.945,-0.351,0.824,2.655,-0.763,53.333,295524.000,1.000
-5.465,-15.311,-7.197,-0.352,-5.166,-5.111,-1.593,-5.003,-0.008,0.947,-0.351,0.916,2.686,-0.763,53.333,295525.000,1.000
0.860,-9.175,0.448,7.423,0.858,0.037,3.539,1.267,-0.008,0.945,-0.352,0.793,2.716,-0.824,53.333,295526.000,1.000
-1.274,1.747,3.878,2.632,-2.695,-1.858,-4.431,1.029,-0.007,0.946,-0.351,0.793,2.686,-0.793,53.333,295527.000,1.000
-6.095,4.718,0.874,-6.069,-10.245,-8.503,-15.183,-4.493,-0.007,0.947,-0.354,0.793,2.655,-0.702,53.333,295528.000,1.000
-4.058,-2.044,-2.322,-5.653,-11.034,-11.033,-15.027,-7.759,-0.011,0.946,-0.354,0.854,2.747,-0.580,53.333,295529.000,1.000
4.613,-6.978,0.117,3.175,-3.918,-6.039,-5.490,-5.234,-0.010,0.946,-0.354,0.824,2.716,-0.732,53.333,295530.000,1.000
9.921,-1.078,5.498,7.189,1.365,0.072,-0.655,-1.856,-0.009,0.947,-0.352,0.763,2.777,-0.610,53.333,295531.000,1.000
5.808,9.869,6.542,-0.534,-1.876,0.303,-7.102,-3.507,-0.008,0.948,-0.354,0.732,2.777,-0.580,53.333,295532.000,1.000
-1.300,13.474,1.855,-10.336,-7.585,-3.004,-14.313,-8.099,-0.010,0.948,-0.354,0.671,2.716,-0.549,53.333,295533.000,1.000
-1.053,7.790,-1.735,-8.738,-5.162,-1.467,-9.097,-8.005,-0.012,0.947,-0.353,0.641,2.625,-0.427,53.333,295534.000,1.000
6.818,3.642,1.577,3.121,5.580,7.228,5.740,-0.645,-0.010,0.945,-0.353,0.427,2.686,-0.519,53.333,295535.000,1.000
12.260,9.143,8.471,10.844,13.487,15.309,14.443,7.462,-0.010,0.944,-0.352,0.580,2.686,-0.427,53.333,295536.000,1.000
8.622,17.924,10.711,6.078,10.628,14.738,9.052,8.844,-0.010,0.945,-0.356,0.519,2.563,-0.397,53.333,295537.000,1.000
1.376,17.474,5.946,-2.749,2.451,7.505,-0.585,4.356,-0.009,0.947,-0.357,0.580,2.441,-0.366,53.333,295538.000,1.000
0.109,6.217,0.511,-2.716,-0.144,2.521,-0.912,1.315,-0.008,0.945,-0.354,0.702,2.533,-0.305,53.333,295539.000,1.000
5.186,-4.038,0.622,5.556,4.347,3.677,6.839,3.358,-0.010,0.946,-0.355,0.732,2.563,-0.214,53.333,295540.000,1.000
7.577,-3.700,4.182,9.109,6.690,5.433,9.217,5.914,-0.010,0.947,-0.355,0.702,2.411,-0.214,53.333,295541.000,1.000
1.914,2.307,4.321,1.233,0.635,1.653,0.266,3.324,-0.009,0.945,-0.354,0.610,2.563,-0.122,53.333,295542.000,1.000
-5.396,2.334,-0.378,-8.469,-7.537,-4.843,-9.216,-2.435,-0.006,0.946,-0.353,0.610,2.533,-0.061,53.333,295543.000,1.000
-4.485,-5.153,-3.366,-6.739,-7.110,-5.548,-6.025,-3.852,-0.007,0.944,-0.353,0.702,2.502,-0.122,53.333,295544.000,1.000
4.416,-9.310,0.899,5.134,2.240,1.793,7.007,1.786,-0.003,0.944,-0.354,0.793,2.533,-0.031,53.333,295545.000,1.000
10.920,-2.423,8.926,12.767,9.506,9.264,14.186,8.277,-0.005,0.943,-0.353,0.793,2.502,-0.061,53.333,295546.000,1.000
8.235,8.416,12.395,7.991,6.814,8.684,7.707,8.605,-0.007,0.945,-0.351,0.885,2.533,-0.031,53.333,295547.000,1.000
1.964,10.055,9.027,-0.410,-0.405,2.035,-2.364,4.258,-0.006,0.945,-0.353,0.946,2.502,0.092,53.333,295548.000,1.000
2.068,0.821,5.349,0.842,-1.312,-1.678,-2.372,2.943,-0.006,0.945,-0.355,0.916,2.655,0.031,53.333,295549.000,1.000
9.034,-7.301,7.518,11.013,5.263,1.216,6.096,7.658,-0.007,0.945,-0.355,0.824,2.716,0.000,53.333,295550.000,1.000
13.288,-4.907,12.844,16.393,9.378,4.457,8.844,12.299,-0.006,0.944,-0.354,0.885,2.686,-0.061,53.333,295551.000,1.000
8.736,2.638,13.797,9.507,4.250,1.312,-0.503,10.161,-0.003,0.943,-0.356,0.885,2.747,-0.092,53.333,295552.000,1.000
1.501,3.511,8.761,-0.287,-3.729,-5.292,-10.826,3.460,-0.006,0.944,-0.353,0.977,2.777,-0.122,53.333,295553.000,1.000
1.561,-3.659,4.464,0.422,-3.370,-6.240,-8.305,0.578,-0.007,0.941,-0.354,1.129,2.716,-0.183,53.333,295554.000,1.000
8.966,-7.691,6.786,10.670,6.090,1.443,4.704,4.954,-0.006,0.943,-0.348,1.129,2.777,-0.275,53.333,295555.000,1.000
13.682,-0.580,12.598,16.495,13.849,10.312,12.732,10.766,-0.005,0.943,-0.350,1.221,2.838,-0.336,53.333,295556.000,1.000
9.132,10.665,13.802,10.052,11.942,12.083,7.891,11.013,-0.004,0.942,-0.351,1.312,2.838,-0.275,53.333,295557.000,1.000
0.883,12.790,8.154,0.166,5.460,8.077,-0.139,6.771,-0.004,0.943,-0.348,1.373,2.899,-0.427,53.333,295558.000,1.000
-1.145,4.080,2.236,0.024,4.926,6.560,1.844,5.178,-0.005,0.944,-0.356,1.373,2.869,-0.366,53.333,295559.000,1.000
3.889,-3.248,2.533,9.019,11.579,10.940,12.117,9.190,-0.003,0.942,-0.357,1.495,3.021,-0.458,53.333,295560.000,1.000
7.023,0.466,6.807,13.722,15.853,15.161,16.592,13.357,-0.003,0.942,-0.356,1.434,3.113,-0.549,53.333,295561.000,1.000
2.353,9.581,7.575,6.638,11.007,12.539,8.656,11.500,-0.005,0.942,-0.354,1.556,3.143,-0.488,53.333,295562.000,1.000
-4.469,11.493,2.738,-3.252,2.853,5.546,-1.292,5.635,-0.006,0.943,-0.353,1.678,3.143,-0.580,53.333,295563.000,1.000
-4.086,4.142,-1.554,-2.876,1.876,2.708,-0.034,3.595,-0.006,0.943,-0.351,1.617,3.265,-0.580,53.333,295564.000,1.000
3.252,-1.494,0.259,6.620,8.543,6.748,10.040,8.205,-0.006,0.944,-0.355,1.617,3.204,-0.580,53.333,295565.000,1.000
7.595,2.967,5.048,11.130,12.317,10.563,13.937,12.848,-0.007,0.943,-0.354,1.648,3.265,-0.641,53.333,295566.000,1.000
2.882,11.521,5.169,2.975,6.062,6.935,4.665,10.050,-0.006,0.945,-0.354,1.709,3.265,-0.641,53.333,295567.000,1.000
-4.416,12.237,-0.715,-8.225,-3.856,-1.235,-6.882,1.676,-0.007,0.948,-0.353,1.709,3.265,-0.671,53.333,295568.000,1.000
-3.760,4.136,-5.298,-8.418,-5.876,-4.472,-6.575,-3.370,-0.007,0.948,-0.357,1.678,3.265,-0.702,53.333,295569.000,1.000
5.240,-1.046,-2.331,1.856,1.253,0.557,3.778,-0.856,-0.006,0.946,-0.353,1.678,3.235,-0.732,53.333,295570.000,1.000
12.351,5.075,4.872,8.470,6.967,6.539,9.070,3.651,-0.007,0.944,-0.352,1.709,3.235,-0.702,53.333,295571.000,1.000
10.560,15.645,7.748,3.145,3.301,5.302,1.582,2.868,-0.007,0.947,-0.350,1.709,3.235,-0.610,53.333,295572.000,1.000
5.139,17.413,3.686,-5.637,-4.655,-1.556,-8.820,-2.425,-0.007,0.945,-0.352,1.617,3.143,-0.610,53.333,295573.000,1.000
5.762,8.465,-0.964,-5.020,-6.354,-5.429,-8.752,-5.136,-0.007,0.946,-0.353,1.740,3.113,-0.702,53.333,295574.000,1.000
12.906,0.721,0.163,4.108,-0.554,-2.649,0.117,-2.135,-0.006,0.947,-0.355,1.709,3.082,-0.793,53.333,295575.000,1.000
17.279,3.676,4.846,8.419,3.171,0.843,3.654,1.403,-0.008,0.948,-0.355,1.678,3.052,-0.793,53.333,295576.000,1.000
12.788,11.559,5.586,0.811,-2.046,-1.820,-4.867,-0.694,-0.008,0.949,-0.354,1.648,3.113,-0.702,53.333,295577.000,1.000
4.987,11.431,0.043,-9.647,-10.749,-8.696,-15.307,-7.039,-0.007,0.948,-0.355,1.648,3.113,-0.671,53.333,295578.000,1.000
3.368,1.061,-5.787,-10.151,-12.691,-11.718,-14.648,-10.620,-0.008,0.948,-0.358,1.587,2.960,-0.610,53.333,295579.000,1.000
8.212,-8.074,-5.931,-1.775,-7.036,-8.033,-5.050,-8.478,-0.009,0.948,-0.357,1.495,2.960,-0.549,53.333,295580.000,1.000
10.245,-6.730,-2.668,2.086,-3.504,-4.154,-0.913,-5.713,-0.008,0.950,-0.357,1.495,2.960,-0.580,53.333,295581.000,1.000
3.743,-0.465,-3.040,-5.542,-8.631,-6.878,-8.820,-8.016,-0.010,0.948,-0.354,1.587,2.869,-0.580,53.333,295582.000,1.000
-4.992,-1.333,-8.477,-15.150,-16.146,-13.459,-18.040,-13.092,-0.009,0.945,-0.354,1.526,3.021,-0.549,53.333,295583.000,1.000
-5.800,-10.509,-12.282,-13.550,-15.171,-14.938,-14.986,-13.303,-0.007,0.947,-0.352,1.465,2.899,-0.641,53.333,295584.000,1.000
1.579,-16.107,-8.738,-2.133,-5.202,-8.288,-1.932,-6.241,-0.007,0.947,-0.352,1.495,2.777,-0.610,53.333,295585.000,1.000
7.228,-9.345,-1.155,4.826,2.913,-0.637,5.904,1.561,-0.007,0.944,-0.350,1.434,2.716,-0.641,53.333,295586.000,1.000
4.701,3.216,2.421,-0.367,1.511,0.303,0.997,3.063,-0.005,0.943,-0.354,1.404,2.777,-0.580,53.333,295587.000,1.000
-0.420,8.134,-0.128,-8.576,-3.918,-3.624,-6.670,-0.351,-0.004,0.943,-0.357,1.373,2.716,-0.519,53.333,295588.000,1.000
1.126,2.604,-2.658,-6.872,-2.983,-4.267,-4.092,-1.526,-0.004,0.944,-0.358,1.404,2.808,-0.519,53.333,295589.000,1.000
8.854,-2.725,0.286,3.366,4.817,0.962,6.275,2.235,-0.004,0.944,-0.357,1.465,2.777,-0.427,53.333,295590.000,1.000
12.847,0.928,5.695,8.293,9.306,5.265,9.773,5.401,-0.005,0.943,-0.356,1.465,2.716,-0.397,53.333,295591.000,1.000
7.395,8.352,6.196,0.802,3.876,1.999,0.031,2.101,-0.006,0.945,-0.354,1.556,2.777,-0.458,53.333,295592.000,1.000
-0.751,8.245,0.528,-9.298,-4.850,-5.545,-11.577,-5.027,-0.005,0.945,-0.356,1.526,2.716,-0.519,53.333,295593.000,1.000
-0.852,0.070,-3.963,-8.167,-5.288,-7.676,-10.633,-7.461,-0.005,0.945,-0.357,1.526,2.716,-0.488,53.333,295594.000,1.000
7.878,-4.125,-0.741,3.479,3.810,-0.839,1.272,-1.818,-0.007,0.944,-0.355,1.465,2.686,-0.641,53.333,295595.000,1.000
15.561,3.886,7.105,11.423,11.737,7.680,9.000,5.597,-0.006,0.941,-0.355,1.526,2.686,-0.610,53.333,295596.000,1.000
15.060,16.603,10.844,7.214,10.146,9.343,4.365,7.044,-0.006,0.943,-0.353,1.526,2.655,-0.641,53.333,295597.000,1.000
11.090,20.172,7.515,-0.818,3.727,5.204,-3.439,3.263,-0.007,0.942,-0.354,1.495,2.747,-0.641,53.333,295598.000,1.000
12.736,12.494,3.292,0.299,2.864,3.403,-1.525,1.598,-0.005,0.943,-0.354,1.495,2.716,-0.580,53.333,295599.000,1.000
20.160,5.514,4.550,9.943,8.835,7.251,8.263,5.256,-0.006,0.944,-0.354,1.526,2.625,-0.641,53.333,295600.000,1.000
24.136,8.743,9.146,14.833,12.201,10.648,11.884,8.755,-0.005,0.944,-0.352,1.495,2.594,-0.763,53.333,295601.000,1.000
19.070,16.670,9.840,7.688,6.444,7.046,2.944,5.733,-0.006,0.945,-0.354,1.465,2.655,-0.824,53.333,295602.000,1.000
11.287,17.061,4.844,-2.347,-2.328,-0.790,-7.892,-1.796,-0.007,0.947,-0.356,1.373,2.716,-0.854,53.333,295603.000,1.000
10.734,8.245,0.574,-2.067,-3.369,-4.070,-7.232,-5.645,-0.007,0.946,-0.357,1.434,2.625,-0.763,53.333,295604.000,1.000
17.313,1.446,2.705,7.607,3.953,0.070,2.680,-2.312,-0.008,0.947,-0.356,1.404,2.655,-0.824,53.333,295605.000,1.000
20.883,5.147,8.133,12.926,9.245,4.622,7.118,2.542,-0.006,0.946,-0.358,1.434,2.686,-0.824,53.333,295606.000,1.000
15.164,13.228,9.159,6.407,5.430,2.362,-0.668,2.237,-0.007,0.946,-0.355,1.373,2.777,-0.885,53.333,295607.000,1.000
6.391,13.277,4.098,-2.828,-1.530,-4.188,-10.020,-1.687,-0.009,0.944,-0.354,1.373,2.686,-0.824,53.333,295608.000,1.000
4.818,3.692,-0.369,-1.793,-0.962,-6.192,-7.543,-1.992,-0.010,0.944,-0.356,1.343,2.716,-0.702,53.333,295609.000,1.000
10.807,-3.965,1.645,8.202,7.653,-0.618,4.356,3.710,-0.010,0.944,-0.357,1.373,2.594,-0.732,53.333,295610.000,1.000
14.525,-0.798,7.101,13.119,13.725,5.521,10.586,9.099,-0.010,0.945,-0.355,1.343,2.563,-0.824,53.333,295611.000,1.000
9.513,7.254,8.136,5.393,9.838,4.603,3.858,7.383,-0.009,0.945,-0.354,1.251,2.594,-0.610,53.333,295612.000,1.000
1.543,7.904,2.931,-5.545,1.801,-1.288,-5.499,0.557,-0.009,0.947,-0.353,1.312,2.502,-0.549,53.333,295613.000,1.000
0.795,-0.001,-1.504,-5.872,0.866,-3.117,-3.676,-2.876,-0.010,0.945,-0.353,1.251,2.441,-0.488,53.333,295614.000,1.000
8.131,-4.274,1.430,4.111,8.757,3.063,8.020,1.167,-0.009,0.946,-0.355,1.312,2.411,-0.580,53.333,295615.000,1.000
14.213,4.103,9.129,10.869,15.848,11.119,15.488,7.443,-0.011,0.948,-0.352,1.221,2.380,-0.488,53.333,295616.000,1.000
12.304,18.130,13.230,6.352,14.548,13.346,11.441,8.806,-0.010,0.947,-0.353,1.221,2.350,-0.397,53.333,295617.000,1.000
6.837,23.197,10.340,-1.531,9.060,10.393,4.823,5.456,-0.008,0.945,-0.355,1.221,2.258,-0.427,53.333,295618.000,1.000
6.178,15.525,5.510,-0.896,8.257,9.037,7.171,3.459,-0.009,0.943,-0.355,1.190,2.258,-0.397,53.333,295619.000,1.000
10.138,5.887,4.222,6.715,12.102,11.413,15.233,5.095,-0.006,0.942,-0.355,1.343,2.258,-0.305,53.333,295620.000,1.000
9.924,4.060,4.419,8.024,11.011,11.233,14.539,5.040,-0.007,0.942,-0.355,1.373,2.319,-0.366,53.333,295621.000,1.000
0.867,5.909,-0.087,-3.250,-0.468,2.733,-0.446,-1.846,-0.008,0.943,-0.358,1.373,2.350,-0.214,53.333,295622.000,1.000
-9.817,0.879,-9.662,-16.606,-14.614,-10.038,-17.398,-12.138,-0.008,0.945,-0.356,1.404,2.258,-0.214,53.333,295623.000,1.000
-11.574,-11.252,-16.702,-17.886,-19.275,-17.019,-21.287,-17.094,-0.007,0.944,-0.358,1.312,2.167,-0.122,53.333,295624.000,1.000
-4.192,-18.446,-14.921,-7.758,-13.056,-14.423,-13.360,-13.597,-0.005,0.944,-0.358,1.343,2.319,-0.061,53.333,295625.000,1.000
2.106,-12.434,-7.565,-0.363,-6.447,-8.957,-8.190,-7.968,-0.007,0.943,-0.353,1.343,2.258,-0.031,53.333,295626.000,1.000
0.403,-0.528,-3.218,-4.082,-7.453,-8.351,-13.220,-7.467,-0.007,0.941,-0.355,1.373,2.319,-0.031,53.333,295627.000,1.000
-4.171,3.382,-4.865,-10.827,-11.495,-11.324,-19.121,-10.967,-0.006,0.942,-0.353,1.373,2.441,0.000,53.333,295628.000,1.000
-2.497,-3.334,-6.939,-8.289,-9.113,-10.520,-13.981,-11.317,-0.006,0.941,-0.352,1.495,2.441,0.061,53.333,295629.000,1.000
5.157,-9.489,-4.030,2.195,-0.317,-3.883,-1.171,-5.930,-0.006,0.944,-0.354,1.434,2.533,0.000,53.333,295630.000,1.000
9.119,-6.105,1.097,7.071,4.665,1.618,4.267,-0.857,-0.004,0.943,-0.354,1.556,2.533,-0.092,53.333,295631.000,1.000
3.702,1.213,1.371,-0.629,-0.610,-0.767,-4.047,-2.609,-0.005,0.942,-0.354,1.465,2.533,-0.214,53.333,295632.000,1.000
-4.664,0.467,-4.380,-11.291,-9.554,-8.132,-14.946,-9.146,-0.004,0.941,-0.355,1.343,2.533,-0.122,53.333,295633.000,1.000
-5.911,-9.597,-9.269,-11.585,-11.104,-11.523,-14.697,-12.514,-0.003,0.941,-0.355,1.495,2.594,-0.122,53.333,295634.000,1.000
0.317,-17.125,-7.268,-2.442,-4.380,-7.746,-5.305,-9.431,-0.003,0.939,-0.357,1.556,2.563,-0.092,53.333,295635.000,1.000
4.825,-12.923,-0.990,2.718,0.703,-3.208,-1.052,-5.258,-0.004,0.940,-0.358,1.678,2.747,-0.092,53.333,295636.000,1.000
1.995,-2.832,2.149,-3.100,-2.532,-4.699,-8.311,-6.116,-0.005,0.937,-0.358,1.740,2.747,-0.183,53.333,295637.000,1.000
-2.421,0.322,0.043,-10.660,-8.257,-9.861,-16.561,-10.216,-0.004,0.938,-0.357,1.770,2.716,-0.183,53.333,295638.000,1.000
0.349,-5.890,-1.608,-7.385,-6.407,-10.521,-13.011,-10.381,-0.004,0.939,-0.359,1.770,2.716,-0.366,53.333,295639.000,1.000
9.107,-10.852,2.109,4.730,2.864,-4.406,-0.701,-4.366,-0.004,0.941,-0.357,1.770,2.747,-0.366,53.333,295640.000,1.000
13.317,-6.369,7.748,11.152,8.666,1.091,5.095,1.394,-0.003,0.940,-0.356,1.892,2.808,-0.458,53.333,295641.000,1.000
6.921,1.528,7.773,4.310,3.862,-1.348,-2.531,0.140,-0.006,0.939,-0.357,1.923,2.808,-0.580,53.333,295642.000,1.000
-3.466,0.937,0.947,-6.190,-5.253,-9.020,-12.785,-6.067,-0.005,0.939,-0.361,1.953,2.777,-0.702,53.333,295643.000,1.000
-7.113,-8.950,-5.439,-6.655,-7.348,-12.630,-11.868,-9.062,-0.004,0.938,-0.358,2.045,2.930,-0.763,53.333,295644.000,1.000
-2.950,-15.900,-4.801,2.336,-1.070,-8.450,-1.504,-5.458,-0.005,0.939,-0.358,2.075,2.869,-0.854,53.333,295645.000,1.000
-0.064,-10.876,0.362,7.292,3.719,-2.785,3.954,-0.885,-0.006,0.939,-0.359,2.075,2.930,-0.916,53.333,295646.000,1.000
-4.671,-0.433,2.145,0.613,-0.228,-2.984,-2.515,-2.053,-0.004,0.941,-0.360,2.045,2.838,-0.977,53.333,295647.000,1.000
-11.763,1.847,-2.193,-9.197,-7.838,-7.567,-11.250,-7.714,-0.006,0.943,-0.360,2.045,2.930,-0.977,53.333,295648.000,1.000
-12.644,-6.547,-7.063,-9.703,-9.219,-8.828,-9.753,-10.743,-0.006,0.945,-0.364,2.014,2.930,-1.068,53.333,295649.000,1.000
-7.490,-13.998,-6.770,-1.934,-3.629,-3.993,-0.258,-8.091,-0.006,0.948,-0.362,1.984,2.960,-1.007,53.333,295650.000,1.000
-5.283,-10.858,-3.528,1.222,-0.459,0.703,3.427,-4.735,-0.009,0.949,-0.362,1.923,2.899,-1.099,53.333,295651.000,1.000
-11.117,-2.441,-4.092,-6.573,-5.837,-1.211,-4.578,-6.296,-0.010,0.948,-0.361,1.892,2.808,-1.251,53.333,295652.000,1.000
-18.493,-1.139,-9.758,-15.573,-13.510,-7.027,-13.470,-10.711,-0.010,0.950,-0.362,1.709,2.655,-1.343,53.333,295653.000,1.000
-17.652,-8.896,-13.866,-12.828,-12.952,-8.137,-10.214,-10.663,-0.010,0.954,-0.362,1.678,2.655,-1.312,53.333,295654.000,1.000
-8.825,-14.486,-10.620,-0.038,-3.790,-1.775,2.438,-3.724,-0.010,0.952,-0.359,1.495,2.655,-1.312,53.333,295655.000,1.000
-2.153,-9.254,-3.140,8.244,3.396,5.010,9.349,3.716,-0.010,0.953,-0.361,1.373,2.533,-1.282,53.333,295656.000,1.000
-4.147,0.746,0.515,3.916,1.262,4.834,3.438,4.556,-0.009,0.951,-0.359,1.312,2.533,-1.312,53.333,295657.000,1.000
-9.247,3.062,-2.003,-4.237,-4.602,-0.111,-4.915,0.287,-0.008,0.949,-0.358,1.160,2.472,-1.190,53.333,295658.000,1.000
-8.055,-4.042,-4.658,-3.176,-3.842,-1.437,-2.493,-1.274,-0.011,0.950,-0.357,1.038,2.411,-1.129,53.333,295659.000,1.000
-0.668,-9.296,-1.869,6.242,3.991,3.538,8.298,3.178,-0.011,0.955,-0.358,0.946,2.350,-1.007,53.333,295660.000,1.000
3.430,-4.152,3.499,10.678,8.620,7.896,12.622,7.893,-0.010,0.953,-0.358,0.854,2.289,-1.099,53.333,295661.000,1.000
-1.290,5.242,4.118,3.178,3.244,4.645,3.697,6.096,-0.009,0.952,-0.353,0.610,2.197,-0.916,53.333,295662.000,1.000
-8.327,6.508,-1.328,-6.732,-5.811,-3.420,-7.685,-0.550,-0.009,0.949,-0.358,0.488,2.167,-0.824,53.333,295663.000,1.000
-7.634,-1.701,-5.798,-5.825,-7.401,-7.158,-7.764,-4.124,-0.006,0.948,-0.358,0.458,2.228,-0.702,53.333,295664.000,1.000
0.857,-7.661,-3.145,4.741,-0.550,-3.236,1.570,-1.150,-0.007,0.946,-0.358,0.427,2.319,-0.580,53.333,295665.000,1.000
7.267,-2.683,3.677,11.018,4.538,1.684,5.835,2.997,-0.006,0.945,-0.362,0.397,2.258,-0.580,53.333,295666.000,1.000
5.329,6.912,6.757,5.389,0.774,0.409,-1.668,1.963,-0.008,0.943,-0.360,0.427,2.380,-0.366,53.333,295667.000,1.000
0.781,8.606,4.010,-3.126,-6.009,-4.787,-10.433,-2.484,-0.007,0.944,-0.358,0.305,2.411,-0.305,53.333,295668.000,1.000
3.023,1.107,1.732,-1.536,-5.267,-5.412,-7.292,-2.899,-0.008,0.944,-0.360,0.244,2.411,-0.397,53.333,295669.000,1.000
11.568,-3.858,5.403,8.873,3.340,1.201,5.099,3.036,-0.007,0.942,-0.357,0.336,2.441,-0.275,53.333,295670.000,1.000
16.191,2.093,11.572,14.012,9.044,7.800,11.499,8.557,-0.008,0.942,-0.355,0.214,2.411,-0.244,53.333,295671.000,1.000
10.954,12.305,12.400,6.449,4.684,7.051,4.940,6.764,-0.006,0.940,-0.354,0.244,2.380,-0.183,53.333,295672.000,1.000
2.788,14.229,6.714,-3.944,-3.167,1.844,-3.501,0.325,-0.005,0.939,-0.355,0.244,2.533,-0.183,53.333,295673.000,1.000
2.536,6.648,2.111,-3.082,-2.847,1.577,0.284,-1.691,-0.004,0.940,-0.356,0.153,2.380,-0.092,53.333,295674.000,1.000
10.595,1.341,5.044,8.393,6.734,9.363,14.200,4.307,-0.006,0.938,-0.354,0.122,2.411,-0.061,53.333,295675.000,1.000
16.653,6.859,12.259,16.216,14.789,17.705,22.834,11.868,-0.007,0.939,-0.353,0.183,2.502,-0.214,53.333,295676.000,1.000
13.526,16.551,15.060,11.798,13.148,18.338,18.173,13.047,-0.008,0.941,-0.355,0.214,2.472,-0.244,53.333,295677.000,1.000
6.173,17.408,10.631,3.187,6.575,12.699,9.593,8.332,-0.006,0.941,-0.356,0.183,2.502,-0.244,53.333,295678.000,1.000
3.998,7.664,5.166,2.974,5.147,9.016,9.819,4.842,-0.007,0.939,-0.357,0.122,2.502,-0.122,53.333,295679.000,1.000
7.547,-0.951,4.939,10.328,9.740,10.505,16.800,5.910,-0.006,0.942,-0.354,0.244,2.441,-0.244,53.333,295680.000,1.000
8.253,0.817,7.952,12.398,11.042,11.247,16.889,6.783,-0.008,0.943,-0.353,0.183,2.533,-0.275,53.333,295681.000,1.000
1.319,7.574,7.552,3.011,3.353,5.357,4.842,2.246,-0.007,0.944,-0.355,0.122,2.533,-0.214,53.333,295682.000,1.000
-6.619,7.424,2.461,-7.723,-6.383,-3.632,-7.529,-4.922,-0.005,0.943,-0.356,0.000,2.533,-0.244,53.333,295683.000,1.000
-6.054,-1.066,-1.006,-6.635,-7.248,-6.629,-6.553,-6.845,-0.004,0.944,-0.354,0.000,2.563,-0.305,53.333,295684.000,1.000
2.193,-6.774,2.192,4.406,0.845,-1.173,4.828,-1.213,-0.007,0.946,-0.354,0.122,2.625,-0.366,53.333,295685.000,1.000
7.394,-1.848,8.138,10.474,6.565,4.748,10.712,4.889,-0.006,0.946,-0.355,-0.031,2.655,-0.488,53.333,295686.000,1.000
2.767,6.714,8.458,3.275,1.952,2.874,3.342,3.712,-0.005,0.947,-0.354,-0.092,2.594,-0.336,53.333,295687.000,1.000
-5.814,6.203,1.327,-8.038,-7.269,-4.648,-6.934,-3.222,-0.007,0.947,-0.357,-0.061,2.533,-0.275,53.333,295688.000,1.000
-8.008,-4.370,-5.975,-9.535,-9.818,-8.480,-6.269,-7.388,-0.006,0.947,-0.355,-0.153,2.594,-0.397,53.333,295689.000,1.000
-2.877,-12.670,-6.605,-1.247,-4.213,-4.808,3.646,-4.646,-0.007,0.948,-0.355,-0.122,2.563,-0.305,53.333,295690.000,1.000
0.510,-9.542,-2.770,3.678,-0.204,-0.090,8.345,-0.185,-0.007,0.947,-0.357,-0.244,2.533,-0.427,53.333,295691.000,1.000
-3.713,-1.034,-1.830,-2.168,-4.608,-1.581,1.026,-0.588,-0.007,0.947,-0.354,-0.275,2.502,-0.366,53.333,295692.000,1.000
-9.777,0.360,-5.628,-10.072,-11.549,-7.107,-7.941,-4.536,-0.007,0.948,-0.356,-0.275,2.594,-0.244,53.333,295693.000,1.000
-8.298,-6.936,-7.885,-7.608,-10.601,-8.198,-5.498,-5.029,-0.007,0.948,-0.356,-0.336,2.563,-0.305,53.333,295694.000,1.000
0.550,-11.361,-3.076,3.673,-1.302,-1.937,5.928,0.392,-0.006,0.946,-0.353,-0.366,2.441,-0.275,53.333,295695.000,1.000
7.035,-4.196,5.576,10.031,6.083,4.907,11.742,5.832,-0.006,0.945,-0.355,-0.366,2.472,-0.275,53.333,295696.000,1.000
4.965,8.040,9.962,4.335,4.426,4.947,5.228,4.946,-0.006,0.945,-0.354,-0.275,2.533,-0.397,53.333,295697.000,1.000
-0.208,11.762,7.527,-4.159,-0.998,-0.118,-3.437,-0.372,-0.008,0.943,-0.354,-0.214,2.533,-0.397,53.333,295698.000,1.000
0.701,4.200,4.217,-2.503,-0.323,-2.264,-1.420,-2.458,-0.009,0.943,-0.354,-0.092,2.441,-0.397,53.333,295699.000,1.000
7.651,-3.353,5.984,8.188,6.971,1.592,8.997,1.806,-0.007,0.941,-0.355,-0.031,2.502,-0.305,53.333,295700.000,1.000
11.303,-1.318,10.583,14.369,11.242,5.384,13.592,6.866,-0.007,0.943,-0.351,0.000,2.472,-0.427,53.333,295701.000,1.000
6.160,5.429,11.099,8.868,6.292,2.704,6.028,6.324,-0.006,0.943,-0.352,0.061,2.411,-0.427,53.333,295702.000,1.000
-1.317,5.323,6.139,0.852,-1.570,-3.753,-3.176,1.850,-0.009,0.947,-0.354,0.183,2.380,-0.427,53.333,295703.000,1.000
-1.274,-3.007,2.159,2.974,-1.934,-5.616,-1.223,0.718,-0.009,0.949,-0.353,0.183,2.319,-0.397,53.333,295704.000,1.000
5.906,-8.559,4.492,13.475,5.215,-0.507,8.956,5.384,-0.010,0.948,-0.350,0.153,2.350,-0.458,53.333,295705.000,1.000
9.850,-3.546,9.566,18.176,9.098,4.296,12.383,9.661,-0.009,0.949,-0.348,0.153,2.228,-0.488,53.333,295706.000,1.000
4.174,5.130,9.345,9.836,2.635,1.501,2.528,6.966,-0.009,0.947,-0.349,0.214,2.136,-0.366,53.333,295707.000,1.000
-4.845,4.925,2.212,-1.689,-7.861,-6.273,-9.537,-0.544,-0.007,0.945,-0.351,0.244,2.075,-0.458,53.333,295708.000,1.000
-6.771,-5.033,-4.620,-2.588,-11.041,-9.859,-9.921,-4.540,-0.005,0.944,-0.352,0.336,2.075,-0.427,53.333,295709.000,1.000
-1.058,-12.447,-4.672,6.318,-5.601,-5.767,-0.495,-1.512,-0.003,0.942,-0.353,0.397,2.136,-0.397,53.333,295710.000,1.000
2.691,-8.406,-0.610,11.121,-1.455,-0.581,4.142,2.814,-0.003,0.939,-0.354,0.519,2.167,-0.427,53.333,295711.000,1.000
-1.575,0.687,-0.048,4.280,-5.576,-1.554,-2.970,1.642,-0.005,0.939,-0.350,0.580,2.258,-0.336,53.333,295712.000,1.000
-8.066,1.947,-4.894,-5.097,-12.340,-6.646,-11.710,-3.587,-0.006,0.939,-0.349,0.702,2.289,-0.366,53.333,295713.000,1.000
-7.644,-6.580,-8.968,-4.227,-11.700,-7.811,-9.288,-5.516,-0.005,0.937,-0.349,0.854,2.228,-0.427,53.333,295714.000,1.000
-0.914,-13.550,-6.806,5.438,-3.478,-2.586,1.755,-1.286,-0.003,0.935,-0.352,0.946,2.289,-0.305,53.333,295715.000,1.000
2.421,-9.984,-1.247,10.294,2.293,2.425,7.175,3.597,-0.002,0.936,-0.354,1.129,2.441,-0.305,53.333,295716.000,1.000
-2.924,-1.274,0.651,3.676,-0.508,0.992,1.159,3.238,-0.001,0.935,-0.353,1.221,2.563,-0.183,53.333,295717.000,1.000
-10.224,0.784,-2.481,-4.666,-5.316,-3.702,-5.244,-0.148,-0.001,0.938,-0.354,1.434,2.655,-0.244,53.333,295718.000,1.000
-9.706,-5.426,-4.427,-1.934,-1.832,-3.218,0.657,0.782,-0.002,0.941,-0.354,1.587,2.686,-0.488,53.333,295719.000,1.000
-1.971,-9.299,-0.244,9.883,9.389,4.304,15.216,8.032,-0.005,0.940,-0.351,1.678,2.625,-0.458,53.333,295720.000,1.000
2.582,-3.355,6.361,16.321,16.866,10.922,22.586,14.838,-0.007,0.942,-0.350,1.801,2.655,-0.519,53.333,295721.000,1.000
-2.148,5.701,7.668,9.928,13.153,9.135,15.679,14.294,-0.008,0.940,-0.352,1.831,2.625,-0.610,53.333,295722.000,1.000
-9.665,5.901,2.439,0.192,4.601,1.889,5.425,8.402,-0.008,0.940,-0.354,1.831,2.533,-0.610,53.333,295723.000,1.000
-9.903,-3.380,-2.312,0.251,2.535,-1.400,5.644,5.157,-0.008,0.939,-0.353,1.892,2.594,-0.732,53.333,295724.000,1.000
-3.039,-10.062,-0.773,8.767,8.066,2.653,14.386,7.657,-0.008,0.940,-0.352,1.892,2.472,-0.824,53.333,295725.000,1.000
0.950,-5.421,3.912,11.986,11.280,7.390,17.315,10.152,-0.007,0.943,-0.352,2.014,2.533,-0.854,53.333,295726.000,1.000
-3.829,4.207,4.149,3.045,5.561,5.747,8.107,6.390,-0.006,0.947,-0.351,1.953,2.594,-1.099,53.333,295727.000,1.000
-10.984,6.290,-1.438,-8.112,-2.797,0.229,-2.388,-1.256,-0.005,0.951,-0.351,1.923,2.563,-1.312,53.333,295728.000,1.000
-10.586,-0.557,-5.865,-7.987,-2.952,-0.423,-0.828,-4.525,-0.005,0.953,-0.351,1.801,2.655,-1.282,53.333,295729.000,1.000
-2.953,-4.780,-3.310,2.106,5.557,6.597,10.251,-0.310,-0.004,0.952,-0.352,1.587,2.747,-1.404,53.333,295730.000,1.000
1.515,1.756,2.716,7.780,11.890,13.879,15.683,5.111,-0.002,0.948,-0.353,1.465,2.808,-1.404,53.333,295731.000,1.000
-3.549,12.011,3.985,1.152,8.485,13.558,8.283,4.532,-0.002,0.951,-0.355,1.556,2.808,-1.434,53.333,295732.000,1.000
-11.537,13.207,-1.157,-8.481,1.263,7.902,-1.410,-0.483,-0.002,0.951,-0.356,1.526,2.930,-1.373,53.333,295733.000,1.000
-11.540,4.396,-5.430,-7.517,1.339,6.027,0.258,-1.987,-0.002,0.951,-0.356,1.465,2.960,-1.251,53.333,295734.000,1.000
-3.018,-2.214,-2.580,3.218,9.591,11.203,11.184,3.181,-0.005,0.949,-0.356,1.312,3.113,-1.129,53.333,295735.000,1.000
3.655,2.035,4.092,9.736,15.481,16.413,16.537,9.023,-0.008,0.947,-0.355,1.129,3.143,-1.038,53.333,295736.000,1.000
1.362,10.458,6.238,4.204,11.609,14.144,9.334,8.699,-0.009,0.949,-0.357,1.282,3.113,-0.885,53.333,295737.000,1.000
-4.596,10.187,1.566,-4.635,3.620,6.547,-0.220,3.736,-0.010,0.949,-0.356,1.221,3.174,-0.793,53.333,295738.000,1.000
-4.635,-0.277,-3.569,-4.132,1.947,2.107,0.622,1.536,-0.011,0.950,-0.358,1.068,3.082,-0.671,53.333,295739.000,1.000
1.533,-9.007,-3.172,4.492,7.231,3.868,9.234,4.968,-0.012,0.949,-0.357,0.946,2.991,-0.702,53.333,295740.000,1.000
4.698,-6.944,0.300,7.983,9.638,5.550,11.410,8.492,-0.013,0.948,-0.353,0.946,2.930,-0.702,53.333,295741.000,1.000
-0.810,-0.223,-0.346,-0.293,2.764,0.692,1.415,6.005,-0.014,0.949,-0.355,0.885,2.869,-0.610,53.333,295742.000,1.000
-9.224,-1.657,-6.887,-10.964,-7.304,-8.022,-9.668,-0.601,-0.015,0.945,-0.353,0.702,2.808,-0.732,53.333,295743.000,1.000
-11.350,-13.060,-13.056,-11.479,-10.276,-12.235,-8.966,-3.988,-0.012,0.946,-0.353,0.671,2.686,-0.702,53.333,295744.000,1.000
-7.042,-22.541,-12.906,-3.287,-5.656,-9.319,0.533,-1.361,-0.011,0.948,-0.355,0.671,2.716,-0.702,53.333,295745.000,1.000
-4.977,-20.494,-8.725,0.302,-3.146,-5.945,4.065,1.828,-0.011,0.949,-0.354,0.519,2.686,-0.702,53.333,295746.000,1.000
-10.184,-12.325,-7.587,-7.305,-8.902,-8.760,-4.575,-0.391,-0.010,0.947,-0.357,0.336,2.563,-0.793,53.333,295747.000,1.000
-16.451,-10.255,-11.134,-16.446,-16.481,-14.834,-14.240,-5.866,-0.008,0.945,-0.357,0.366,2.502,-0.763,53.333,295748.000,1.000
-14.394,-15.863,-12.951,-14.150,-15.240,-15.285,-11.445,-6.926,-0.007,0.942,-0.359,0.305,2.625,-0.793,53.333,295749.000,1.000
-4.658,-18.124,-7.725,-2.146,-5.144,-7.599,1.060,-1.062,-0.008,0.943,-0.356,0.336,2.686,-0.793,53.333,295750.000,1.000
2.084,-9.647,0.573,5.015,2.516,0.336,7.723,5.134,-0.008,0.944,-0.354,0.366,2.808,-0.702,53.333,295751.000,1.000
-1.123,1.932,3.248,-0.555,-0.109,0.379,1.097,4.507,-0.007,0.945,-0.354,0.305,2.838,-0.610,53.333,295752.000,1.000
-8.640,3.607,-1.802,-9.725,-7.301,-5.337,-8.505,-1.218,-0.007,0.946,-0.358,0.214,2.808,-0.580,53.333,295753.000,1.000
-10.330,-5.420,-7.454,-9.260,-8.027,-7.730,-7.625,-4.037,-0.009,0.945,-0.357,0.275,2.991,-0.488,53.333,295754.000,1.000
-5.297,-12.379,-6.865,-0.009,-0.966,-3.081,1.935,-0.541,-0.010,0.944,-0.357,0.336,2.930,-0.397,53.333,295755.000,1.000
-2.191,-7.643,-1.941,4.848,4.467,2.672,6.391,3.981,-0.009,0.944,-0.354,0.366,2.869,-0.275,53.333,295756.000,1.000
-6.109,3.143,0.467,-1.240,2.095,3.139,0.028,3.571,-0.008,0.947,-0.359,0.305,2.777,-0.244,53.333,295757.000,1.000
-10.948,7.476,-1.391,-8.737,-2.066,0.736,-6.377,0.165,-0.008,0.945,-0.356,0.183,2.808,-0.214,53.333,295758.000,1.000
-8.041,2.987,-2.060,-5.296,1.467,2.896,-0.745,0.711,-0.006,0.944,-0.356,0.122,2.869,-0.214,53.333,295759.000,1.000
1.173,-0.099,2.692,6.690,11.614,10.816,12.681,6.984,-0.006,0.944,-0.358,0.153,3.052,-0.275,53.333,295760.000,1.000
6.336,6.013,8.992,12.777,17.226,16.747,18.076,12.461,-0.008,0.943,-0.357,0.183,2.991,-0.336,53.333,295761.000,1.000
1.878,15.244,9.472,5.860,11.792,13.994,9.050,10.844,-0.005,0.941,-0.354,0.183,2.991,-0.336,53.333,295762.000,1.000
-5.452,15.918,3.320,-4.293,2.344,6.114,-2.748,4.629,-0.007,0.941,-0.356,0.275,2.991,-0.305,53.333,295763.000,1.000
-5.571,7.326,-2.099,-4.392,0.275,2.612,-3.240,1.882,-0.007,0.939,-0.352,0.305,2.991,-0.336,53.333,295764.000,1.000
1.545,1.308,-0.694,4.414,6.364,6.620,5.463,5.466,-0.006,0.941,-0.356,0.397,2.960,-0.397,53.333,295765.000,1.000
6.274,6.297,4.478,8.514,10.268,11.138,8.677,9.337,-0.006,0.940,-0.353,0.397,3.052,-0.366,53.333,295766.000,1.000
2.967,15.909,5.758,1.031,5.154,8.953,-0.145,7.038,-0.006,0.942,-0.354,0.458,2.991,-0.488,53.333,295767.000,1.000
-1.951,17.960,1.710,-8.231,-2.606,2.712,-10.125,0.869,-0.005,0.942,-0.354,0.519,3.021,-0.397,53.333,295768.000,1.000
1.311,11.374,-0.731,-5.981,-2.021,1.330,-7.837,-0.932,-0.006,0.942,-0.353,0.610,3.052,-0.427,53.333,295769.000,1.000
12.245,7.572,4.130,6.242,7.387,7.671,4.106,4.642,-0.007,0.942,-0.352,0.610,2.991,-0.641,53.333,295770.000,1.000
20.283,14.351,12.564,13.885,14.695,14.415,10.403,11.070,-0.006,0.945,-0.353,0.610,2.991,-0.732,53.333,295771.000,1.000
18.725,24.585,15.985,8.886,12.131,13.800,3.732,10.843,-0.006,0.944,-0.352,0.610,3.082,-0.793,53.333,295772.000,1.000
13.283,25.481,12.071,0.073,5.049,7.773,-5.766,5.130,-0.005,0.944,-0.352,0.549,3.143,-0.854,53.333,295773.000,1.000
13.673,15.858,7.352,0.377,3.831,4.724,-5.027,1.534,-0.005,0.945,-0.350,0.549,3.052,-0.824,53.333,295774.000,1.000
20.055,7.775,7.911,8.763,9.220,7.600,3.754,3.415,-0.004,0.946,-0.353,0.427,3.082,-0.885,53.333,295775.000,1.000
22.942,10.071,11.019,11.856,11.393,9.939,6.403,5.572,-0.001,0.943,-0.350,0.549,3.143,-1.007,53.333,295776.000,1.000
16.565,16.447,9.230,2.882,3.945,5.191,-3.225,2.046,-0.001,0.941,-0.351,0.702,3.265,-0.946,53.333,295777.000,1.000
7.278,14.617,1.280,-8.344,-6.610,-3.631,-14.259,-4.906,-0.002,0.941,-0.352,0.732,3.357,-1.038,53.333,295778.000,1.000
5.306,3.727,-5.466,-8.412,-9.181,-7.536,-13.428,-7.337,-0.003,0.943,-0.352,0.793,3.357,-1.099,53.333,295779.000,1.000
10.983,-4.254,-4.712,1.407,-3.077,-3.752,-3.351,-2.492,-0.003,0.944,-0.349,0.854,3.387,-1.129,53.333,295780.000,1.000
14.473,-1.010,0.317,6.945,1.108,0.362,0.903,3.066,-0.004,0.948,-0.351,0.793,3.540,-1.129,53.333,295781.000,1.000
9.435,6.676,1.367,0.636,-3.936,-2.663,-7.535,2.072,-0.005,0.950,-0.353,0.854,3.601,-1.007,53.333,295782.000,1.000
1.651,6.224,-3.691,-8.306,-12.355,-10.244,-18.005,-3.881,-0.005,0.949,-0.352,0.824,3.448,-1.129,53.333,295783.000,1.000
0.655,-3.546,-8.429,-7.116,-13.531,-13.463,-17.228,-6.967,-0.003,0.948,-0.349,0.732,3.479,-1.251,53.333,295784.000,1.000
6.152,-10.925,-7.250,2.392,-7.017,-9.457,-7.787,-4.153,-0.004,0.947,-0.349,0.732,3.510,-1.251,53.333,295785.000,1.000
8.341,-7.526,-3.345,6.074,-3.228,-5.308,-4.547,-1.321,-0.004,0.946,-0.349,0.732,3.693,-1.221,53.333,295786.000,1.000
1.759,0.203,-4.150,-3.002,-8.952,-8.120,-13.976,-4.857,-0.007,0.948,-0.349,0.763,3.723,-1.282,53.333,295787.000,1.000
-6.734,-0.009,-10.761,-14.783,-17.835,-15.099,-25.020,-12.465,-0.006,0.947,-0.350,0.763,3.632,-1.251,53.333,295788.000,1.000
-6.926,-9.082,-15.969,-15.629,-18.895,-17.242,-24.070,-15.880,-0.008,0.948,-0.353,0.671,3.571,-1.373,53.333,295789.000,1.000
1.209,-14.862,-13.551,-6.313,-11.163,-11.341,-13.189,-11.647,-0.006,0.949,-0.352,0.671,3.601,-1.282,53.333,295790.000,1.000
7.800,-8.564,-6.313,-0.115,-4.485,-3.990,-6.678,-5.321,-0.009,0.949,-0.351,0.671,3.510,-1.282,53.333,295791.000,1.000
6.535,3.013,-2.168,-4.151,-5.845,-2.512,-11.216,-3.721,-0.009,0.950,-0.349,0.671,3.540,-1.312,53.333,295792.000,1.000
2.913,6.477,-3.621,-9.847,-10.122,-5.348,-17.082,-6.001,-0.008,0.948,-0.350,0.610,3.510,-1.312,53.333,295793.000,1.000
6.110,-0.225,-5.015,-5.561,-7.896,-4.938,-12.389,-5.663,-0.006,0.947,-0.353,0.671,3.510,-1.343,53.333,295794.000,1.000
15.835,-5.482,-1.085,6.367,0.754,1.127,-0.370,-0.428,-0.008,0.946,-0.349,0.732,3.418,-1.312,53.333,295795.000,1.000
22.661,-0.192,5.345,12.143,5.966,6.461,4.592,4.090,-0.008,0.946,-0.348,0.702,3.418,-1.282,53.333,295796.000,1.000
21.333,9.982,7.287,5.381,1.883,4.924,-3.086,2.162,-0.006,0.945,-0.350,0.763,3.296,-1.282,53.333,295797.000,1.000
18.290,12.929,3.563,-3.821,-4.749,-0.389,-12.015,-3.710,-0.006,0.947,-0.349,0.793,3.326,-1.282,53.333,295798.000,1.000
22.795,7.141,0.812,-2.368,-3.434,-0.999,-9.102,-5.734,-0.006,0.946,-0.352,0.854,3.357,-1.282,53.333,295799.000,1.000
33.898,3.732,4.512,8.075,5.678,5.282,2.494,-1.341,-0.007,0.945,-0.350,0.793,3.235,-1.404,53.333,295800.000,1.000
41.306,10.663,11.332,13.453,11.684,11.029,7.531,3.236,-0.006,0.946,-0.349,0.885,3.296,-1.373,53.333,295801.000,1.000
39.132,21.241,13.569,6.718,7.613,9.166,-0.459,1.519,-0.005,0.943,-0.352,0.793,3.235,-1.373,53.333,295802.000,1.000
33.714,22.999,9.698,-2.406,-0.108,2.695,-10.269,-4.237,-0.007,0.945,-0.351,0.732,3.174,-1.404,53.333,295803.000,1.000
34.789,14.762,6.436,-0.805,-0.504,0.609,-8.459,-6.156,-0.007,0.943,-0.350,0.916,3.174,-1.404,53.333,295804.000,1.000
42.131,8.300,9.412,9.921,6.924,5.545,2.156,-1.636,-0.008,0.944,-0.349,1.038,3.204,-1.373,53.333,295805.000,1.000
46.007,12.137,15.341,15.653,11.718,10.233,6.522,3.079,-0.007,0.945,-0.348,1.099,3.235,-1.282,53.333,295806.000,1.000
40.748,19.828,16.481,9.137,6.978,7.514,-1.863,1.500,-0.009,0.946,-0.350,1.099,3.204,-1.282,53.333,295807.000,1.000
32.670,18.931,11.218,-0.183,-1.265,0.077,-12.141,-4.261,-0.008,0.945,-0.346,1.129,3.174,-1.251,53.333,295808.000,1.000
31.356,8.352,6.204,0.595,-2.577,-3.340,-11.216,-6.539,-0.008,0.946,-0.349,1.129,3.174,-1.343,53.333,295809.000,1.000
36.387,0.154,7.208,9.902,3.435,0.144,-1.762,-2.768,-0.007,0.945,-0.350,1.129,3.143,-1.221,53.333,295810.000,1.000
37.960,3.251,11.354,13.978,6.790,3.906,1.734,1.042,-0.006,0.944,-0.351,1.129,3.143,-1.251,53.333,295811.000,1.000
30.409,11.265,11.230,6.003,1.141,1.159,-6.782,-1.318,-0.008,0.943,-0.350,1.221,3.113,-1.251,53.333,295812.000,1.000
19.927,11.226,5.105,-4.471,-7.341,-5.674,-16.487,-7.691,-0.008,0.942,-0.351,1.312,3.143,-1.190,53.333,295813.000,1.000
16.007,1.272,-0.639,-4.625,-8.350,-8.284,-14.548,-10.473,-0.008,0.942,-0.350,1.312,3.143,-1.312,53.333,295814.000,1.000
18.379,-7.014,-0.262,4.052,-1.617,-3.976,-3.823,-6.960,-0.008,0.943,-0.351,1.404,3.082,-1.221,53.333,295815.000,1.000
17.396,-4.790,3.389,7.884,2.593,0.441,0.955,-3.000,-0.007,0.945,-0.348,1.495,2.991,-1.251,53.333,295816.000,1.000
7.522,1.928,2.873,-0.045,-2.419,-1.970,-6.545,-4.901,-0.007,0.941,-0.353,1.404,3.052,-1.282,53.333,295817.000,1.000
-4.724,0.905,-3.419,-10.291,-10.506,-8.567,-15.521,-10.692,-0.007,0.941,-0.350,1.526,3.113,-1.190,53.333,295818.000,1.000
-9.508,-9.199,-9.023,-10.153,-11.199,-10.824,-13.067,-12.842,-0.008,0.941,-0.350,1.526,3.113,-1.160,53.333,295819.000,1.000
-7.122,-16.987,-8.463,-1.384,-4.293,-6.352,-2.183,-8.714,-0.008,0.942,-0.351,1.617,3.143,-1.099,53.333,295820.000,1.000
-7.531,-14.270,-4.987,2.046,-0.256,-2.426,2.228,-4.295,-0.008,0.942,-0.352,1.678,3.021,-1.099,53.333,295821.000,1.000
-16.626,-7.562,-6.172,-6.795,-5.843,-6.036,-6.144,-5.987,-0.009,0.944,-0.352,1.740,3.082,-1.282,53.333,295822.000,1.000
-28.143,-9.099,-13.337,-18.064,-14.726,-14.107,-16.257,-11.743,-0.007,0.944,-0.350,1.709,2.991,-1.221,53.333,295823.000,1.000
-32.430,-19.835,-19.444,-18.464,-16.087,-17.463,-14.814,-13.723,-0.008,0.944,-0.350,1.648,3.021,-1.190,53.333,295824.000,1.000
-29.821,-27.929,-18.510,-9.365,-9.384,-13.193,-4.425,-8.948,-0.010,0.946,-0.353,1.740,2.930,-1.129,53.333,295825.000,1.000
-29.924,-24.770,-13.559,-4.687,-4.861,-8.373,0.280,-3.465,-0.008,0.946,-0.351,1.770,3.082,-1.160,53.333,295826.000,1.000
-38.016,-16.606,-12.345,-11.619,-9.254,-10.203,-6.927,-4.251,-0.007,0.946,-0.352,1.770,3.052,-1.129,53.333,295827.000,1.000
-47.688,-15.971,-16.974,-21.008,-16.675,-16.404,-15.381,-9.928,-0.006,0.944,-0.352,1.740,3.052,-1.160,53.333,295828.000,1.000
-49.765,-24.598,-21.560,-20.502,-17.163,-18.894,-12.641,-13.052,-0.007,0.945,-0.350,1.709,3.082,-1.099,53.333,295829.000,1.000
-45.025,-31.154,-20.756,-11.995,-10.770,-15.266,-2.070,-10.544,-0.009,0.946,-0.352,1.770,3.082,-1.038,53.333,295830.000,1.000
-43.209,-26.963,-17.220,-9.070,-7.567,-12.077,1.552,-7.664,-0.009,0.946,-0.352,1.709,3.052,-1.099,53.333,295831.000,1.000
